TimeStamp,Delta_TP9,Delta_AF7,Delta_AF8,Delta_TP10,Theta_TP9,Theta_AF7,Theta_AF8,Theta_TP10,Alpha_TP9,Alpha_AF7,Alpha_AF8,Alpha_TP10,Beta_TP9,Beta_AF7,Beta_AF8,Beta_TP10,Gamma_TP9,Gamma_AF7,Gamma_AF8,Gamma_TP10,RAW_TP9,RAW_AF7,RAW_AF8,RAW_TP10,AUX_RIGHT,Accelerometer_X,Accelerometer_Y,Accelerometer_Z,Gyro_X,Gyro_Y,Gyro_Z,HeadBandOn,HSI_TP9,HSI_AF7,HSI_AF8,HSI_TP10,Battery,Elements
2024-02-29 12:28:07.572,,,,,,,,,,,,,,,,,,,,,,,,,,,,,,,,,,,,,,/muse/event/connected Muse-AB4C
2024-02-29 12:28:07.667,0.2018631395344394,0.08076861905310304,0.1884702920048892,0.413793850486227,0.4958864168998208,-0.113608901957041,0.03428829186087828,0.7525849141599011,0.4875278946906847,0.1874399814151497,0.1705664845310218,0.2258303665641255,0.3805495276555505,-0.1372074059292309,-0.02722991919762072,0.6697035393433953,0.2746780529406447,-0.4548674310449219,-0.5890272003205218,0.6934397730964775,1108.461538461539,817.5457875457876,819.1575091575091,94.68864468864469,1371.575091575092,-0.002991,0.133545,1.025818,4.643097,-4.471130,-1.577606,1,1,1,1,4,30.000000
2024-02-29 12:28:07.667,0.2018631395344394,0.08076861905310304,0.1884702920048892,0.413793850486227,0.4958864168998208,-0.113608901957041,0.03428829186087828,0.7525849141599011,0.4875278946906847,0.1874399814151497,0.1705664845310218,0.2258303665641255,0.3805495276555505,-0.1372074059292309,-0.02722991919762072,0.6697035393433953,0.2746780529406447,-0.4548674310449219,-0.5890272003205218,0.6934397730964775,961.7948717948718,819.5604395604396,819.1575091575091,1343.369963369963,1573.443223443224,-0.002991,0.133545,1.025818,4.643097,-4.471130,-1.577606,1,1,1,1,4,30.000000
2024-02-29 12:28:07.668,0.2018631395344394,0.08076861905310304,0.1884702920048892,0.413793850486227,0.4958864168998208,-0.113608901957041,0.03428829186087828,0.7525849141599011,0.4875278946906847,0.1874399814151497,0.1705664845310218,0.2258303665641255,0.3805495276555505,-0.1372074059292309,-0.02722991919762072,0.6697035393433953,0.2746780529406447,-0.4548674310449219,-0.5890272003205218,0.6934397730964775,628.1684981684982,806.6666666666667,808.2783882783883,307.0329670329671,805.8608058608058,-0.002991,0.133545,1.025818,4.643097,-4.471130,-1.577606,1,1,1,1,4,30.000000
2024-02-29 12:28:07.668,0.2018631395344394,0.08076861905310304,0.1884702920048892,0.413793850486227,0.4958864168998208,-0.113608901957041,0.03428829186087828,0.7525849141599011,0.4875278946906847,0.1874399814151497,0.1705664845310218,0.2258303665641255,0.3805495276555505,-0.1372074059292309,-0.02722991919762072,0.6697035393433953,0.2746780529406447,-0.4548674310449219,-0.5890272003205218,0.6934397730964775,522.6007326007326,794.5787545787546,804.2490842490843,0,0,-0.002991,0.133545,1.025818,4.643097,-4.471130,-1.577606,1,1,1,1,4,30.000000
2024-02-29 12:28:07.669,0.2018631395344394,0.08076861905310304,0.1884702920048892,0.413793850486227,0.4958864168998208,-0.113608901957041,0.03428829186087828,0.7525849141599011,0.4875278946906847,0.1874399814151497,0.1705664845310218,0.2258303665641255,0.3805495276555505,-0.1372074059292309,-0.02722991919762072,0.6697035393433953,0.2746780529406447,-0.4548674310449219,-0.5890272003205218,0.6934397730964775,801.4285714285714,803.040293040293,813.1135531135532,674.1025641025641,366.2637362637363,-0.002991,0.133545,1.025818,4.643097,-4.471130,-1.577606,1,1,1,1,4,30.000000
2024-02-29 12:28:07.669,0.2018631395344394,0.08076861905310304,0.1884702920048892,0.413793850486227,0.4958864168998208,-0.113608901957041,0.03428829186087828,0.7525849141599011,0.4875278946906847,0.1874399814151497,0.1705664845310218,0.2258303665641255,0.3805495276555505,-0.1372074059292309,-0.02722991919762072,0.6697035393433953,0.2746780529406447,-0.4548674310449219,-0.5890272003205218,0.6934397730964775,1084.285714285714,813.5164835164835,815.934065934066,51.97802197802198,1433.223443223443,-0.002991,0.133545,1.025818,4.643097,-4.471130,-1.577606,1,1,1,1,4,30.000000
2024-02-29 12:28:07.670,0.2018631395344394,0.08076861905310304,0.1884702920048892,0.413793850486227,0.4958864168998208,-0.113608901957041,0.03428829186087828,0.7525849141599011,0.4875278946906847,0.1874399814151497,0.1705664845310218,0.2258303665641255,0.3805495276555505,-0.1372074059292309,-0.02722991919762072,0.6697035393433953,0.2746780529406447,-0.4548674310449219,-0.5890272003205218,0.6934397730964775,983.1501831501831,814.7252747252747,815.934065934066,1455.787545787546,19.74358974358974,-0.002991,0.133545,1.025818,4.643097,-4.471130,-1.577606,1,1,1,1,4,30.000000
2024-02-29 12:28:07.670,0.2018631395344394,0.08076861905310304,0.1884702920048892,0.413793850486227,0.4958864168998208,-0.113608901957041,0.03428829186087828,0.7525849141599011,0.4875278946906847,0.1874399814151497,0.1705664845310218,0.2258303665641255,0.3805495276555505,-0.1372074059292309,-0.02722991919762072,0.6697035393433953,0.2746780529406447,-0.4548674310449219,-0.5890272003205218,0.6934397730964775,647.1062271062272,805.4578754578755,807.8754578754579,454.1025641025641,815.1282051282052,-0.002991,0.133545,1.025818,4.643097,-4.471130,-1.577606,1,1,1,1,4,30.000000
2024-02-29 12:28:07.670,0.2018631395344394,0.08076861905310304,0.1884702920048892,0.413793850486227,0.4958864168998208,-0.113608901957041,0.03428829186087828,0.7525849141599011,0.4875278946906847,0.1874399814151497,0.1705664845310218,0.2258303665641255,0.3805495276555505,-0.1372074059292309,-0.02722991919762072,0.6697035393433953,0.2746780529406447,-0.4548674310449219,-0.5890272003205218,0.6934397730964775,514.9450549450549,795.3846153846154,800.2197802197802,0,7.252747252747253,-0.002991,0.133545,1.025818,4.643097,-4.471130,-1.577606,1,1,1,1,4,30.000000
2024-02-29 12:28:07.671,0.2018631395344394,0.08076861905310304,0.1884702920048892,0.413793850486227,0.4958864168998208,-0.113608901957041,0.03428829186087828,0.7525849141599011,0.4875278946906847,0.1874399814151497,0.1705664845310218,0.2258303665641255,0.3805495276555505,-0.1372074059292309,-0.02722991919762072,0.6697035393433953,0.2746780529406447,-0.4548674310449219,-0.5890272003205218,0.6934397730964775,758.3150183150184,796.996336996337,800.6227106227107,558.4615384615385,306.6300366300366,-0.002991,0.133545,1.025818,4.643097,-4.471130,-1.577606,1,1,1,1,4,30.000000
2024-02-29 12:28:07.671,0.2018631395344394,0.08076861905310304,0.1884702920048892,0.413793850486227,0.4958864168998208,-0.113608901957041,0.03428829186087828,0.7525849141599011,0.4875278946906847,0.1874399814151497,0.1705664845310218,0.2258303665641255,0.3805495276555505,-0.1372074059292309,-0.02722991919762072,0.6697035393433953,0.2746780529406447,-0.4548674310449219,-0.5890272003205218,0.6934397730964775,1052.051282051282,813.5164835164835,804.2490842490843,1626.227106227106,1164.871794871795,-0.002991,0.133545,1.025818,4.643097,-4.471130,-1.577606,1,1,1,1,4,30.000000
2024-02-29 12:28:07.672,0.2018631395344394,0.08076861905310304,0.1884702920048892,0.413793850486227,0.4958864168998208,-0.113608901957041,0.03428829186087828,0.7525849141599011,0.4875278946906847,0.1874399814151497,0.1705664845310218,0.2258303665641255,0.3805495276555505,-0.1372074059292309,-0.02722991919762072,0.6697035393433953,0.2746780529406447,-0.4548674310449219,-0.5890272003205218,0.6934397730964775,1028.681318681319,827.6190476190476,811.5018315018315,1579.487179487179,16.52014652014652,-0.002991,0.133545,1.025818,4.643097,-4.471130,-1.577606,1,1,1,1,4,30.000000
2024-02-29 12:28:07.673,0.2018631395344394,0.08076861905310304,0.1884702920048892,0.413793850486227,0.4958864168998208,-0.113608901957041,0.03428829186087828,0.7525849141599011,0.4875278946906847,0.1874399814151497,0.1705664845310218,0.2258303665641255,0.3805495276555505,-0.1372074059292309,-0.02722991919762072,0.6697035393433953,0.2746780529406447,-0.4548674310449219,-0.5890272003205218,0.6934397730964775,697.4725274725275,813.5164835164835,808.2783882783883,614.8717948717949,996.4468864468864,-0.004944,0.138000,1.017578,4.889832,-4.209442,-1.996307,1,1,1,1,4,30.000000
2024-02-29 12:28:07.674,0.207821776853703,0.1032653167997975,0.1615962053950115,0.413793850486227,0.5038465634622525,-0.06055653009514991,-0.007367486850760997,0.7525849141599011,0.4831924311542832,0.1874399814151497,0.1740752873434392,0.2258303665641255,0.3818227995528537,-0.1446894935247593,-0.03812415701107068,0.6697035393433953,0.270304375726822,-0.4724733751728193,-0.5852839612124718,0.6934397730964775,512.5274725274726,796.996336996337,803.4432234432235,0,74.94505494505495,-0.004944,0.138000,1.017578,4.889832,-4.209442,-1.996307,1,1,1,1,4,30.000000
2024-02-29 12:28:07.675,0.207821776853703,0.1032653167997975,0.1615962053950115,0.413793850486227,0.5038465634622525,-0.06055653009514991,-0.007367486850760997,0.7525849141599011,0.4831924311542832,0.1874399814151497,0.1740752873434392,0.2258303665641255,0.3818227995528537,-0.1446894935247593,-0.03812415701107068,0.6697035393433953,0.270304375726822,-0.4724733751728193,-0.5852839612124718,0.6934397730964775,720.0366300366301,803.4432234432235,805.8608058608058,435.970695970696,127.3260073260073,-0.004944,0.138000,1.017578,4.889832,-4.209442,-1.996307,1,1,1,1,4,30.000000
2024-02-29 12:28:07.675,0.207821776853703,0.1032653167997975,0.1615962053950115,0.413793850486227,0.5038465634622525,-0.06055653009514991,-0.007367486850760997,0.7525849141599011,0.4831924311542832,0.1874399814151497,0.1740752873434392,0.2258303665641255,0.3818227995528537,-0.1446894935247593,-0.03812415701107068,0.6697035393433953,0.270304375726822,-0.4724733751728193,-0.5852839612124718,0.6934397730964775,1024.652014652015,813.5164835164835,811.5018315018315,1510.989010989011,1007.326007326007,-0.004944,0.138000,1.017578,4.889832,-4.209442,-1.996307,1,1,1,1,4,30.000000
2024-02-29 12:28:07.676,0.207821776853703,0.1032653167997975,0.1615962053950115,0.413793850486227,0.5038465634622525,-0.06055653009514991,-0.007367486850760997,0.7525849141599011,0.4831924311542832,0.1874399814151497,0.1740752873434392,0.2258303665641255,0.3818227995528537,-0.1446894935247593,-0.03812415701107068,0.6697035393433953,0.270304375726822,-0.4724733751728193,-0.5852839612124718,0.6934397730964775,1057.692307692308,816.3369963369963,816.3369963369963,25.78754578754579,28.2051282051282,-0.004944,0.138000,1.017578,4.889832,-4.209442,-1.996307,1,1,1,1,4,30.000000
2024-02-29 12:28:07.676,0.207821776853703,0.1032653167997975,0.1615962053950115,0.413793850486227,0.5038465634622525,-0.06055653009514991,-0.007367486850760997,0.7525849141599011,0.4831924311542832,0.1874399814151497,0.1740752873434392,0.2258303665641255,0.3818227995528537,-0.1446894935247593,-0.03812415701107068,0.6697035393433953,0.270304375726822,-0.4724733751728193,-0.5852839612124718,0.6934397730964775,725.6776556776557,807.4725274725275,808.2783882783883,740.5860805860806,1116.520146520146,-0.004944,0.138000,1.017578,4.889832,-4.209442,-1.996307,1,1,1,1,4,30.000000
2024-02-29 12:28:07.676,0.207821776853703,0.1032653167997975,0.1615962053950115,0.413793850486227,0.5038465634622525,-0.06055653009514991,-0.007367486850760997,0.7525849141599011,0.4831924311542832,0.1874399814151497,0.1740752873434392,0.2258303665641255,0.3818227995528537,-0.1446894935247593,-0.03812415701107068,0.6697035393433953,0.270304375726822,-0.4724733751728193,-0.5852839612124718,0.6934397730964775,502.4542124542125,796.996336996337,799.0109890109891,0,160.7692307692308,-0.004944,0.138000,1.017578,4.889832,-4.209442,-1.996307,1,1,1,1,4,30.000000
2024-02-29 12:28:07.677,0.207821776853703,0.1032653167997975,0.1615962053950115,0.413793850486227,0.5038465634622525,-0.06055653009514991,-0.007367486850760997,0.7525849141599011,0.4831924311542832,0.1874399814151497,0.1740752873434392,0.2258303665641255,0.3818227995528537,-0.1446894935247593,-0.03812415701107068,0.6697035393433953,0.270304375726822,-0.4724733751728193,-0.5852839612124718,0.6934397730964775,673.6996336996338,796.5934065934066,799.4139194139194,316.7032967032967,51.17216117216118,-0.004944,0.138000,1.017578,4.889832,-4.209442,-1.996307,1,1,1,1,4,30.000000
2024-02-29 12:28:07.677,0.207821776853703,0.1032653167997975,0.1615962053950115,0.413793850486227,0.5038465634622525,-0.06055653009514991,-0.007367486850760997,0.7525849141599011,0.4831924311542832,0.1874399814151497,0.1740752873434392,0.2258303665641255,0.3818227995528537,-0.1446894935247593,-0.03812415701107068,0.6697035393433953,0.270304375726822,-0.4724733751728193,-0.5852839612124718,0.6934397730964775,989.1941391941392,809.0842490842491,807.0695970695971,1363.113553113553,971.0622710622711,-0.004944,0.138000,1.017578,4.889832,-4.209442,-1.996307,1,1,1,1,4,30.000000
2024-02-29 12:28:07.678,0.207821776853703,0.1032653167997975,0.1615962053950115,0.413793850486227,0.5038465634622525,-0.06055653009514991,-0.007367486850760997,0.7525849141599011,0.4831924311542832,0.1874399814151497,0.1740752873434392,0.2258303665641255,0.3818227995528537,-0.1446894935247593,-0.03812415701107068,0.6697035393433953,0.270304375726822,-0.4724733751728193,-0.5852839612124718,0.6934397730964775,1084.285714285714,818.7545787545788,813.1135531135532,95.8974358974359,93.07692307692308,-0.004944,0.138000,1.017578,4.889832,-4.209442,-1.996307,1,1,1,1,4,30.000000
2024-02-29 12:28:07.678,0.207821776853703,0.1032653167997975,0.1615962053950115,0.413793850486227,0.5038465634622525,-0.06055653009514991,-0.007367486850760997,0.7525849141599011,0.4831924311542832,0.1874399814151497,0.1740752873434392,0.2258303665641255,0.3818227995528537,-0.1446894935247593,-0.03812415701107068,0.6697035393433953,0.270304375726822,-0.4724733751728193,-0.5852839612124718,0.6934397730964775,768.3882783882784,808.6813186813187,808.6813186813187,849.3772893772895,1153.186813186813,-0.004944,0.138000,1.017578,4.889832,-4.209442,-1.996307,1,1,1,1,4,30.000000
2024-02-29 12:28:07.678,0.207821776853703,0.1032653167997975,0.1615962053950115,0.413793850486227,0.5038465634622525,-0.06055653009514991,-0.007367486850760997,0.7525849141599011,0.4831924311542832,0.1874399814151497,0.1740752873434392,0.2258303665641255,0.3818227995528537,-0.1446894935247593,-0.03812415701107068,0.6697035393433953,0.270304375726822,-0.4724733751728193,-0.5852839612124718,0.6934397730964775,514.1391941391942,794.1758241758242,804.6520146520147,0,165.2014652014652,-0.004944,0.138000,1.017578,4.889832,-4.209442,-1.996307,1,1,1,1,4,30.000000
2024-02-29 12:28:07.679,0.207821776853703,0.1032653167997975,0.1615962053950115,0.413793850486227,0.5038465634622525,-0.06055653009514991,-0.007367486850760997,0.7525849141599011,0.4831924311542832,0.1874399814151497,0.1740752873434392,0.2258303665641255,0.3818227995528537,-0.1446894935247593,-0.03812415701107068,0.6697035393433953,0.270304375726822,-0.4724733751728193,-0.5852839612124718,0.6934397730964775,651.1355311355312,799.0109890109891,802.6373626373627,203.4798534798535,4.835164835164836,-0.004944,0.138000,1.017578,4.889832,-4.209442,-1.996307,1,1,1,1,4,30.000000
2024-02-29 12:28:07.679,0.207821776853703,0.1032653167997975,0.1615962053950115,0.413793850486227,0.5038465634622525,-0.06055653009514991,-0.007367486850760997,0.7525849141599011,0.4831924311542832,0.1874399814151497,0.1740752873434392,0.2258303665641255,0.3818227995528537,-0.1446894935247593,-0.03812415701107068,0.6697035393433953,0.270304375726822,-0.4724733751728193,-0.5852839612124718,0.6934397730964775,960.1831501831502,813.919413919414,806.2637362637363,1197.912087912088,808.6813186813187,-0.004944,0.138000,1.017578,4.889832,-4.209442,-1.996307,1,1,1,1,4,30.000000
2024-02-29 12:28:07.680,0.207821776853703,0.1032653167997975,0.1615962053950115,0.413793850486227,0.5038465634622525,-0.06055653009514991,-0.007367486850760997,0.7525849141599011,0.4831924311542832,0.1874399814151497,0.1740752873434392,0.2258303665641255,0.3818227995528537,-0.1446894935247593,-0.03812415701107068,0.6697035393433953,0.270304375726822,-0.4724733751728193,-0.5852839612124718,0.6934397730964775,1111.684981684982,820.3663003663004,811.9047619047619,134.981684981685,0,-0.004944,0.138000,1.017578,4.889832,-4.209442,-1.996307,1,1,1,1,4,30.000000
2024-02-29 12:28:07.680,0.207821776853703,0.1032653167997975,0.1615962053950115,0.413793850486227,0.5038465634622525,-0.06055653009514991,-0.007367486850760997,0.7525849141599011,0.4831924311542832,0.1874399814151497,0.1740752873434392,0.2258303665641255,0.3818227995528537,-0.1446894935247593,-0.03812415701107068,0.6697035393433953,0.270304375726822,-0.4724733751728193,-0.5852839612124718,0.6934397730964775,834.0659340659341,809.8901098901099,808.2783882783883,968.6446886446887,1332.087912087912,-0.004944,0.138000,1.017578,4.889832,-4.209442,-1.996307,1,1,1,1,4,30.000000
2024-02-29 12:28:07.681,0.207821776853703,0.1032653167997975,0.1615962053950115,0.413793850486227,0.5038465634622525,-0.06055653009514991,-0.007367486850760997,0.7525849141599011,0.4831924311542832,0.1874399814151497,0.1740752873434392,0.2258303665641255,0.3818227995528537,-0.1446894935247593,-0.03812415701107068,0.6697035393433953,0.270304375726822,-0.4724733751728193,-0.5852839612124718,0.6934397730964775,535.4945054945055,796.5934065934066,803.040293040293,0,426.3003663003663,-0.004944,0.138000,1.017578,4.889832,-4.209442,-1.996307,1,1,1,1,4,30.000000
2024-02-29 12:28:07.681,0.207821776853703,0.1032653167997975,0.1615962053950115,0.413793850486227,0.5038465634622525,-0.06055653009514991,-0.007367486850760997,0.7525849141599011,0.4831924311542832,0.1874399814151497,0.1740752873434392,0.2258303665641255,0.3818227995528537,-0.1446894935247593,-0.03812415701107068,0.6697035393433953,0.270304375726822,-0.4724733751728193,-0.5852839612124718,0.6934397730964775,610.0366300366301,796.996336996337,801.8315018315019,96.30036630036631,27.3992673992674,-0.004944,0.138000,1.017578,4.889832,-4.209442,-1.996307,1,1,1,1,4,30.000000
2024-02-29 12:28:07.682,0.207821776853703,0.1032653167997975,0.1615962053950115,0.413793850486227,0.5038465634622525,-0.06055653009514991,-0.007367486850760997,0.7525849141599011,0.4831924311542832,0.1874399814151497,0.1740752873434392,0.2258303665641255,0.3818227995528537,-0.1446894935247593,-0.03812415701107068,0.6697035393433953,0.270304375726822,-0.4724733751728193,-0.5852839612124718,0.6934397730964775,925.1282051282052,809.4871794871796,807.4725274725275,1046.007326007326,692.6373626373627,-0.004944,0.138000,1.017578,4.889832,-4.209442,-1.996307,1,1,1,1,4,30.000000
2024-02-29 12:28:07.682,0.207821776853703,0.1032653167997975,0.1615962053950115,0.413793850486227,0.5038465634622525,-0.06055653009514991,-0.007367486850760997,0.7525849141599011,0.4831924311542832,0.1874399814151497,0.1740752873434392,0.2258303665641255,0.3818227995528537,-0.1446894935247593,-0.03812415701107068,0.6697035393433953,0.270304375726822,-0.4724733751728193,-0.5852839612124718,0.6934397730964775,1114.505494505494,821.1721611721612,812.3076923076924,138.2051282051282,1579.89010989011,-0.004944,0.138000,1.017578,4.889832,-4.209442,-1.996307,1,1,1,1,4,30.000000
2024-02-29 12:28:07.682,0.207821776853703,0.1032653167997975,0.1615962053950115,0.413793850486227,0.5038465634622525,-0.06055653009514991,-0.007367486850760997,0.7525849141599011,0.4831924311542832,0.1874399814151497,0.1740752873434392,0.2258303665641255,0.3818227995528537,-0.1446894935247593,-0.03812415701107068,0.6697035393433953,0.270304375726822,-0.4724733751728193,-0.5852839612124718,0.6934397730964775,871.5384615384615,815.5311355311355,810.2930402930403,1085.897435897436,1485.604395604396,-0.004944,0.138000,1.017578,4.889832,-4.209442,-1.996307,1,1,1,1,4,30.000000
2024-02-29 12:28:07.683,0.207821776853703,0.1032653167997975,0.1615962053950115,0.413793850486227,0.5038465634622525,-0.06055653009514991,-0.007367486850760997,0.7525849141599011,0.4831924311542832,0.1874399814151497,0.1740752873434392,0.2258303665641255,0.3818227995528537,-0.1446894935247593,-0.03812415701107068,0.6697035393433953,0.270304375726822,-0.4724733751728193,-0.5852839612124718,0.6934397730964775,554.8351648351648,803.040293040293,804.2490842490843,15.71428571428572,517.3626373626374,-0.004944,0.138000,1.017578,4.889832,-4.209442,-1.996307,1,1,1,1,4,30.000000
2024-02-29 12:28:07.683,0.207821776853703,0.1032653167997975,0.1615962053950115,0.413793850486227,0.5038465634622525,-0.06055653009514991,-0.007367486850760997,0.7525849141599011,0.4831924311542832,0.1874399814151497,0.1740752873434392,0.2258303665641255,0.3818227995528537,-0.1446894935247593,-0.03812415701107068,0.6697035393433953,0.270304375726822,-0.4724733751728193,-0.5852839612124718,0.6934397730964775,584.6520146520147,799.8168498168499,802.2344322344322,0,0,-0.004944,0.138000,1.017578,4.889832,-4.209442,-1.996307,1,1,1,1,4,30.000000
2024-02-29 12:28:07.684,0.207821776853703,0.1032653167997975,0.1615962053950115,0.413793850486227,0.5038465634622525,-0.06055653009514991,-0.007367486850760997,0.7525849141599011,0.4831924311542832,0.1874399814151497,0.1740752873434392,0.2258303665641255,0.3818227995528537,-0.1446894935247593,-0.03812415701107068,0.6697035393433953,0.270304375726822,-0.4724733751728193,-0.5852839612124718,0.6934397730964775,897.3260073260074,810.6959706959707,807.0695970695971,918.6813186813187,510.5128205128206,-0.004944,0.138000,1.017578,4.889832,-4.209442,-1.996307,1,1,1,1,4,30.000000
2024-02-29 12:28:07.685,0.207821776853703,0.1032653167997975,0.1615962053950115,0.413793850486227,0.5038465634622525,-0.06055653009514991,-0.007367486850760997,0.7525849141599011,0.4831924311542832,0.1874399814151497,0.1740752873434392,0.2258303665641255,0.3818227995528537,-0.1446894935247593,-0.03812415701107068,0.6697035393433953,0.270304375726822,-0.4724733751728193,-0.5852839612124718,0.6934397730964775,1115.311355311355,823.992673992674,814.3223443223443,125.7142857142857,1494.065934065934,0.001648,0.133545,1.027283,4.366455,-4.321594,-1.577606,1,1,1,1,4,30.000000
2024-02-29 12:28:07.685,0.207821776853703,0.1032653167997975,0.1615962053950115,0.413793850486227,0.5038465634622525,-0.06055653009514991,-0.007367486850760997,0.7525849141599011,0.4831924311542832,0.1874399814151497,0.1740752873434392,0.2258303665641255,0.3818227995528537,-0.1446894935247593,-0.03812415701107068,0.6697035393433953,0.270304375726822,-0.4724733751728193,-0.5852839612124718,0.6934397730964775,925.934065934066,821.1721611721612,818.3516483516484,1203.553113553114,1397.362637362637,0.001648,0.133545,1.027283,4.366455,-4.321594,-1.577606,1,1,1,1,4,30.000000
2024-02-29 12:28:07.686,0.207821776853703,0.1032653167997975,0.1615962053950115,0.413793850486227,0.5038465634622525,-0.06055653009514991,-0.007367486850760997,0.7525849141599011,0.4831924311542832,0.1874399814151497,0.1740752873434392,0.2258303665641255,0.3818227995528537,-0.1446894935247593,-0.03812415701107068,0.6697035393433953,0.270304375726822,-0.4724733751728193,-0.5852839612124718,0.6934397730964775,598.3516483516484,808.2783882783883,807.0695970695971,132.5641025641026,446.043956043956,0.001648,0.133545,1.027283,4.366455,-4.321594,-1.577606,1,1,1,1,4,30.000000
2024-02-29 12:28:07.686,0.218346696206832,0.1206621466876017,0.1324950561038276,0.413793850486227,0.5133245010957046,-0.02080879801386957,-0.04406104225051357,0.7525849141599011,0.4809844181478862,0.1874399814151497,0.171738004141373,0.2258303665641255,0.3920799869948098,-0.1559529965005856,-0.04530036584692897,0.6697035393433953,0.2880468496501962,-0.4973524295961114,-0.578408459034509,0.6934397730964775,560.8791208791209,798.6080586080586,800.2197802197802,0,0,0.001648,0.133545,1.027283,4.366455,-4.321594,-1.577606,1,1,1,1,4,30.000000
2024-02-29 12:28:07.687,0.218346696206832,0.1206621466876017,0.1324950561038276,0.413793850486227,0.5133245010957046,-0.02080879801386957,-0.04406104225051357,0.7525849141599011,0.4809844181478862,0.1874399814151497,0.171738004141373,0.2258303665641255,0.3920799869948098,-0.1559529965005856,-0.04530036584692897,0.6697035393433953,0.2880468496501962,-0.4973524295961114,-0.578408459034509,0.6934397730964775,860.2564102564103,804.6520146520147,808.6813186813187,801.025641025641,418.2417582417582,0.001648,0.133545,1.027283,4.366455,-4.321594,-1.577606,1,1,1,1,4,30.000000
2024-02-29 12:28:07.688,0.218346696206832,0.1206621466876017,0.1324950561038276,0.413793850486227,0.5133245010957046,-0.02080879801386957,-0.04406104225051357,0.7525849141599011,0.4809844181478862,0.1874399814151497,0.171738004141373,0.2258303665641255,0.3920799869948098,-0.1559529965005856,-0.04530036584692897,0.6697035393433953,0.2880468496501962,-0.4973524295961114,-0.578408459034509,0.6934397730964775,1107.655677655678,818.7545787545788,811.9047619047619,90.65934065934066,1377.216117216117,0.001648,0.133545,1.027283,4.366455,-4.321594,-1.577606,1,1,1,1,4,30.000000
2024-02-29 12:28:07.688,0.218346696206832,0.1206621466876017,0.1324950561038276,0.413793850486227,0.5133245010957046,-0.02080879801386957,-0.04406104225051357,0.7525849141599011,0.4809844181478862,0.1874399814151497,0.171738004141373,0.2258303665641255,0.3920799869948098,-0.1559529965005856,-0.04530036584692897,0.6697035393433953,0.2880468496501962,-0.4973524295961114,-0.578408459034509,0.6934397730964775,974.2857142857143,819.5604395604396,811.9047619047619,1359.084249084249,1597.619047619048,0.001648,0.133545,1.027283,4.366455,-4.321594,-1.577606,1,1,1,1,4,30.000000
2024-02-29 12:28:07.689,0.218346696206832,0.1206621466876017,0.1324950561038276,0.413793850486227,0.5133245010957046,-0.02080879801386957,-0.04406104225051357,0.7525849141599011,0.4809844181478862,0.1874399814151497,0.171738004141373,0.2258303665641255,0.3920799869948098,-0.1559529965005856,-0.04530036584692897,0.6697035393433953,0.2880468496501962,-0.4973524295961114,-0.578408459034509,0.6934397730964775,649.5238095238095,801.8315018315019,806.6666666666667,330.8058608058608,927.948717948718,0.001648,0.133545,1.027283,4.366455,-4.321594,-1.577606,1,1,1,1,4,30.000000
2024-02-29 12:28:07.689,0.218346696206832,0.1206621466876017,0.1324950561038276,0.413793850486227,0.5133245010957046,-0.02080879801386957,-0.04406104225051357,0.7525849141599011,0.4809844181478862,0.1874399814151497,0.171738004141373,0.2258303665641255,0.3920799869948098,-0.1559529965005856,-0.04530036584692897,0.6697035393433953,0.2880468496501962,-0.4973524295961114,-0.578408459034509,0.6934397730964775,538.7179487179487,792.5641025641025,803.8461538461539,0,110,0.001648,0.133545,1.027283,4.366455,-4.321594,-1.577606,1,1,1,1,4,30.000000
2024-02-29 12:28:07.689,0.218346696206832,0.1206621466876017,0.1324950561038276,0.413793850486227,0.5133245010957046,-0.02080879801386957,-0.04406104225051357,0.7525849141599011,0.4809844181478862,0.1874399814151497,0.171738004141373,0.2258303665641255,0.3920799869948098,-0.1559529965005856,-0.04530036584692897,0.6697035393433953,0.2880468496501962,-0.4973524295961114,-0.578408459034509,0.6934397730964775,803.8461538461539,803.4432234432235,807.8754578754579,666.8498168498169,271.5750915750916,0.001648,0.133545,1.027283,4.366455,-4.321594,-1.577606,1,1,1,1,4,30.000000
2024-02-29 12:28:07.690,0.218346696206832,0.1206621466876017,0.1324950561038276,0.413793850486227,0.5133245010957046,-0.02080879801386957,-0.04406104225051357,0.7525849141599011,0.4809844181478862,0.1874399814151497,0.171738004141373,0.2258303665641255,0.3920799869948098,-0.1559529965005856,-0.04530036584692897,0.6697035393433953,0.2880468496501962,-0.4973524295961114,-0.578408459034509,0.6934397730964775,1081.465201465202,813.919413919414,814.3223443223443,37.06959706959707,1223.296703296703,0.001648,0.133545,1.027283,4.366455,-4.321594,-1.577606,1,1,1,1,4,30.000000
2024-02-29 12:28:07.690,0.218346696206832,0.1206621466876017,0.1324950561038276,0.413793850486227,0.5133245010957046,-0.02080879801386957,-0.04406104225051357,0.7525849141599011,0.4809844181478862,0.1874399814151497,0.171738004141373,0.2258303665641255,0.3920799869948098,-0.1559529965005856,-0.04530036584692897,0.6697035393433953,0.2880468496501962,-0.4973524295961114,-0.578408459034509,0.6934397730964775,1002.490842490843,813.5164835164835,819.96336996337,1503.333333333333,25.38461538461539,0.001648,0.133545,1.027283,4.366455,-4.321594,-1.577606,1,1,1,1,4,30.000000
2024-02-29 12:28:07.691,0.218346696206832,0.1206621466876017,0.1324950561038276,0.413793850486227,0.5133245010957046,-0.02080879801386957,-0.04406104225051357,0.7525849141599011,0.4809844181478862,0.1874399814151497,0.171738004141373,0.2258303665641255,0.3920799869948098,-0.1559529965005856,-0.04530036584692897,0.6697035393433953,0.2880468496501962,-0.4973524295961114,-0.578408459034509,0.6934397730964775,686.1904761904763,804.6520146520147,814.7252747252747,503.6630036630037,986.7765567765568,-0.002258,0.135742,1.022705,5.330963,-3.880463,-0.179443,1,1,1,1,4,30.000000
2024-02-29 12:28:07.691,0.218346696206832,0.1206621466876017,0.1324950561038276,0.413793850486227,0.5133245010957046,-0.02080879801386957,-0.04406104225051357,0.7525849141599011,0.4809844181478862,0.1874399814151497,0.171738004141373,0.2258303665641255,0.3920799869948098,-0.1559529965005856,-0.04530036584692897,0.6697035393433953,0.2880468496501962,-0.4973524295961114,-0.578408459034509,0.6934397730964775,552.8205128205128,794.5787545787546,803.8461538461539,0,88.64468864468864,-0.002258,0.135742,1.022705,5.330963,-3.880463,-0.179443,1,1,1,1,4,30.000000
2024-02-29 12:28:07.692,0.218346696206832,0.1206621466876017,0.1324950561038276,0.413793850486227,0.5133245010957046,-0.02080879801386957,-0.04406104225051357,0.7525849141599011,0.4809844181478862,0.1874399814151497,0.171738004141373,0.2258303665641255,0.3920799869948098,-0.1559529965005856,-0.04530036584692897,0.6697035393433953,0.2880468496501962,-0.4973524295961114,-0.578408459034509,0.6934397730964775,701.0989010989011,794.981684981685,806.2637362637363,241.3553113553114,176.4835164835165,-0.002258,0.135742,1.022705,5.330963,-3.880463,-0.179443,1,1,1,1,4,30.000000
2024-02-29 12:28:07.692,0.218346696206832,0.1206621466876017,0.1324950561038276,0.413793850486227,0.5133245010957046,-0.02080879801386957,-0.04406104225051357,0.7525849141599011,0.4809844181478862,0.1874399814151497,0.171738004141373,0.2258303665641255,0.3920799869948098,-0.1559529965005856,-0.04530036584692897,0.6697035393433953,0.2880468496501962,-0.4973524295961114,-0.578408459034509,0.6934397730964775,823.992673992674,806.2637362637363,812.3076923076924,861.0622710622711,672.893772893773,-0.002258,0.135742,1.022705,5.330963,-3.880463,-0.179443,1,1,1,1,4,30.000000
2024-02-29 12:28:07.693,0.218346696206832,0.1206621466876017,0.1324950561038276,0.413793850486227,0.5133245010957046,-0.02080879801386957,-0.04406104225051357,0.7525849141599011,0.4809844181478862,0.1874399814151497,0.171738004141373,0.2258303665641255,0.3920799869948098,-0.1559529965005856,-0.04530036584692897,0.6697035393433953,0.2880468496501962,-0.4973524295961114,-0.578408459034509,0.6934397730964775,838.0952380952381,814.3223443223443,810.2930402930403,1046.007326007326,814.3223443223443,-0.002258,0.135742,1.022705,5.330963,-3.880463,-0.179443,1,1,1,1,4,30.000000
2024-02-29 12:28:07.693,0.218346696206832,0.1206621466876017,0.1324950561038276,0.413793850486227,0.5133245010957046,-0.02080879801386957,-0.04406104225051357,0.7525849141599011,0.4809844181478862,0.1874399814151497,0.171738004141373,0.2258303665641255,0.3920799869948098,-0.1559529965005856,-0.04530036584692897,0.6697035393433953,0.2880468496501962,-0.4973524295961114,-0.578408459034509,0.6934397730964775,784.5054945054945,812.7106227106227,805.4578754578755,666.0439560439561,637.8388278388279,-0.002258,0.135742,1.022705,5.330963,-3.880463,-0.179443,1,1,1,1,4,30.000000
2024-02-29 12:28:07.693,0.218346696206832,0.1206621466876017,0.1324950561038276,0.413793850486227,0.5133245010957046,-0.02080879801386957,-0.04406104225051357,0.7525849141599011,0.4809844181478862,0.1874399814151497,0.171738004141373,0.2258303665641255,0.3920799869948098,-0.1559529965005856,-0.04530036584692897,0.6697035393433953,0.2880468496501962,-0.4973524295961114,-0.578408459034509,0.6934397730964775,744.6153846153846,805.8608058608058,800.6227106227107,359.8168498168498,573.7728937728938,-0.002258,0.135742,1.022705,5.330963,-3.880463,-0.179443,1,1,1,1,4,30.000000
2024-02-29 12:28:07.694,0.218346696206832,0.1206621466876017,0.1324950561038276,0.413793850486227,0.5133245010957046,-0.02080879801386957,-0.04406104225051357,0.7525849141599011,0.4809844181478862,0.1874399814151497,0.171738004141373,0.2258303665641255,0.3920799869948098,-0.1559529965005856,-0.04530036584692897,0.6697035393433953,0.2880468496501962,-0.4973524295961114,-0.578408459034509,0.6934397730964775,790.1465201465202,807.8754578754579,803.040293040293,594.7252747252747,630.5860805860806,-0.002258,0.135742,1.022705,5.330963,-3.880463,-0.179443,1,1,1,1,4,30.000000
2024-02-29 12:28:07.694,0.218346696206832,0.1206621466876017,0.1324950561038276,0.413793850486227,0.5133245010957046,-0.02080879801386957,-0.04406104225051357,0.7525849141599011,0.4809844181478862,0.1874399814151497,0.171738004141373,0.2258303665641255,0.3920799869948098,-0.1559529965005856,-0.04530036584692897,0.6697035393433953,0.2880468496501962,-0.4973524295961114,-0.578408459034509,0.6934397730964775,865.4945054945056,817.1428571428571,809.4871794871796,1076.630036630037,722.0512820512821,-0.002258,0.135742,1.022705,5.330963,-3.880463,-0.179443,1,1,1,1,4,30.000000
2024-02-29 12:28:07.695,0.218346696206832,0.1206621466876017,0.1324950561038276,0.413793850486227,0.5133245010957046,-0.02080879801386957,-0.04406104225051357,0.7525849141599011,0.4809844181478862,0.1874399814151497,0.171738004141373,0.2258303665641255,0.3920799869948098,-0.1559529965005856,-0.04530036584692897,0.6697035393433953,0.2880468496501962,-0.4973524295961114,-0.578408459034509,0.6934397730964775,882.014652014652,819.96336996337,810.6959706959707,1232.564102564103,911.0256410256411,-0.002258,0.135742,1.022705,5.330963,-3.880463,-0.179443,1,1,1,1,4,30.000000
2024-02-29 12:28:07.695,0.218346696206832,0.1206621466876017,0.1324950561038276,0.413793850486227,0.5133245010957046,-0.02080879801386957,-0.04406104225051357,0.7525849141599011,0.4809844181478862,0.1874399814151497,0.171738004141373,0.2258303665641255,0.3920799869948098,-0.1559529965005856,-0.04530036584692897,0.6697035393433953,0.2880468496501962,-0.4973524295961114,-0.578408459034509,0.6934397730964775,813.1135531135532,812.3076923076924,806.6666666666667,836.8864468864469,901.7582417582418,-0.002258,0.135742,1.022705,5.330963,-3.880463,-0.179443,1,1,1,1,4,30.000000
2024-02-29 12:28:07.695,0.218346696206832,0.1206621466876017,0.1324950561038276,0.413793850486227,0.5133245010957046,-0.02080879801386957,-0.04406104225051357,0.7525849141599011,0.4809844181478862,0.1874399814151497,0.171738004141373,0.2258303665641255,0.3920799869948098,-0.1559529965005856,-0.04530036584692897,0.6697035393433953,0.2880468496501962,-0.4973524295961114,-0.578408459034509,0.6934397730964775,747.032967032967,809.0842490842491,805.0549450549451,450.8791208791209,671.6849816849817,-0.002258,0.135742,1.022705,5.330963,-3.880463,-0.179443,1,1,1,1,4,30.000000
2024-02-29 12:28:07.697,0.218346696206832,0.1206621466876017,0.1324950561038276,0.413793850486227,0.5133245010957046,-0.02080879801386957,-0.04406104225051357,0.7525849141599011,0.4809844181478862,0.1874399814151497,0.171738004141373,0.2258303665641255,0.3920799869948098,-0.1559529965005856,-0.04530036584692897,0.6697035393433953,0.2880468496501962,-0.4973524295961114,-0.578408459034509,0.6934397730964775,781.6849816849817,814.7252747252747,806.6666666666667,587.4725274725275,503.6630036630037,-0.013489,0.139526,1.025696,5.981445,-3.506622,-0.822449,1,1,1,1,4,30.000000
2024-02-29 12:28:07.697,0.218346696206832,0.1206621466876017,0.1324950561038276,0.413793850486227,0.5133245010957046,-0.02080879801386957,-0.04406104225051357,0.7525849141599011,0.4809844181478862,0.1874399814151497,0.171738004141373,0.2258303665641255,0.3920799869948098,-0.1559529965005856,-0.04530036584692897,0.6697035393433953,0.2880468496501962,-0.4973524295961114,-0.578408459034509,0.6934397730964775,867.1062271062272,811.0989010989011,805.8608058608058,1049.230769230769,742.1978021978023,-0.013489,0.139526,1.025696,5.981445,-3.506622,-0.822449,1,1,1,1,4,30.000000
2024-02-29 12:28:07.698,0.218346696206832,0.1206621466876017,0.1324950561038276,0.413793850486227,0.5133245010957046,-0.02080879801386957,-0.04406104225051357,0.7525849141599011,0.4809844181478862,0.1874399814151497,0.171738004141373,0.2258303665641255,0.3920799869948098,-0.1559529965005856,-0.04530036584692897,0.6697035393433953,0.2880468496501962,-0.4973524295961114,-0.578408459034509,0.6934397730964775,894.5054945054945,812.3076923076924,804.2490842490843,1280.10989010989,995.2380952380953,-0.013489,0.139526,1.025696,5.981445,-3.506622,-0.822449,1,1,1,1,4,30.000000
2024-02-29 12:28:07.698,0.218346696206832,0.1206621466876017,0.1324950561038276,0.413793850486227,0.5133245010957046,-0.02080879801386957,-0.04406104225051357,0.7525849141599011,0.4809844181478862,0.1874399814151497,0.171738004141373,0.2258303665641255,0.3920799869948098,-0.1559529965005856,-0.04530036584692897,0.6697035393433953,0.2880468496501962,-0.4973524295961114,-0.578408459034509,0.6934397730964775,827.2161172161173,813.919413919414,806.2637362637363,911.8315018315019,912.6373626373627,-0.013489,0.139526,1.025696,5.981445,-3.506622,-0.822449,1,1,1,1,4,30.000000
2024-02-29 12:28:07.698,0.218346696206832,0.1206621466876017,0.1324950561038276,0.413793850486227,0.5133245010957046,-0.02080879801386957,-0.04406104225051357,0.7525849141599011,0.4809844181478862,0.1874399814151497,0.171738004141373,0.2258303665641255,0.3920799869948098,-0.1559529965005856,-0.04530036584692897,0.6697035393433953,0.2880468496501962,-0.4973524295961114,-0.578408459034509,0.6934397730964775,765.1648351648352,811.5018315018315,808.2783882783883,485.1282051282051,649.5238095238095,-0.013489,0.139526,1.025696,5.981445,-3.506622,-0.822449,1,1,1,1,4,30.000000
2024-02-29 12:28:07.699,0.2286472333500104,0.1320669045053959,0.1077413171549436,0.413793850486227,0.5329141507285995,0.001770052381256115,-0.06838847289118388,0.7525849141599011,0.4809844181478862,0.1874399814151497,0.1282877562286722,0.2258303665641255,0.3913490657186728,-0.1679163456067225,-0.04677113891846599,0.6697035393433953,0.2828438924530001,-0.5189433108850832,-0.5704443271309578,0.6934397730964775,784.5054945054945,810.2930402930403,807.4725274725275,555.6410256410256,515.7509157509157,-0.013489,0.139526,1.025696,5.981445,-3.506622,-0.822449,1,1,1,1,4,30.000000
2024-02-29 12:28:07.700,0.2286472333500104,0.1320669045053959,0.1077413171549436,0.413793850486227,0.5329141507285995,0.001770052381256115,-0.06838847289118388,0.7525849141599011,0.4809844181478862,0.1874399814151497,0.1282877562286722,0.2258303665641255,0.3913490657186728,-0.1679163456067225,-0.04677113891846599,0.6697035393433953,0.2828438924530001,-0.5189433108850832,-0.5704443271309578,0.6934397730964775,849.3772893772895,805.4578754578755,808.2783882783883,994.0293040293041,947.2893772893773,-0.013489,0.139526,1.025696,5.981445,-3.506622,-0.822449,1,1,1,1,4,30.000000
2024-02-29 12:28:07.700,0.2286472333500104,0.1320669045053959,0.1077413171549436,0.413793850486227,0.5329141507285995,0.001770052381256115,-0.06838847289118388,0.7525849141599011,0.4809844181478862,0.1874399814151497,0.1282877562286722,0.2258303665641255,0.3913490657186728,-0.1679163456067225,-0.04677113891846599,0.6697035393433953,0.2828438924530001,-0.5189433108850832,-0.5704443271309578,0.6934397730964775,887.2527472527473,808.2783882783883,807.8754578754579,1275.274725274725,1260.3663003663,-0.013489,0.139526,1.025696,5.981445,-3.506622,-0.822449,1,1,1,1,4,30.000000
2024-02-29 12:28:07.701,0.2286472333500104,0.1320669045053959,0.1077413171549436,0.413793850486227,0.5329141507285995,0.001770052381256115,-0.06838847289118388,0.7525849141599011,0.4809844181478862,0.1874399814151497,0.1282877562286722,0.2258303665641255,0.3913490657186728,-0.1679163456067225,-0.04677113891846599,0.6697035393433953,0.2828438924530001,-0.5189433108850832,-0.5704443271309578,0.6934397730964775,830.4395604395604,811.0989010989011,804.6520146520147,957.3626373626374,965.4212454212454,-0.013489,0.139526,1.025696,5.981445,-3.506622,-0.822449,1,1,1,1,4,30.000000
2024-02-29 12:28:07.701,0.2286472333500104,0.1320669045053959,0.1077413171549436,0.413793850486227,0.5329141507285995,0.001770052381256115,-0.06838847289118388,0.7525849141599011,0.4809844181478862,0.1874399814151497,0.1282877562286722,0.2258303665641255,0.3913490657186728,-0.1679163456067225,-0.04677113891846599,0.6697035393433953,0.2828438924530001,-0.5189433108850832,-0.5704443271309578,0.6934397730964775,755.0915750915751,809.8901098901099,807.4725274725275,523.4065934065934,684.1758241758242,-0.013489,0.139526,1.025696,5.981445,-3.506622,-0.822449,1,1,1,1,4,30.000000
2024-02-29 12:28:07.701,0.2286472333500104,0.1320669045053959,0.1077413171549436,0.413793850486227,0.5329141507285995,0.001770052381256115,-0.06838847289118388,0.7525849141599011,0.4809844181478862,0.1874399814151497,0.1282877562286722,0.2258303665641255,0.3913490657186728,-0.1679163456067225,-0.04677113891846599,0.6697035393433953,0.2828438924530001,-0.5189433108850832,-0.5704443271309578,0.6934397730964775,763.1501831501831,811.0989010989011,810.2930402930403,529.047619047619,603.992673992674,-0.013489,0.139526,1.025696,5.981445,-3.506622,-0.822449,1,1,1,1,4,30.000000
2024-02-29 12:28:07.702,0.2286472333500104,0.1320669045053959,0.1077413171549436,0.413793850486227,0.5329141507285995,0.001770052381256115,-0.06838847289118388,0.7525849141599011,0.4809844181478862,0.1874399814151497,0.1282877562286722,0.2258303665641255,0.3913490657186728,-0.1679163456067225,-0.04677113891846599,0.6697035393433953,0.2828438924530001,-0.5189433108850832,-0.5704443271309578,0.6934397730964775,837.2893772893773,812.7106227106227,807.8754578754579,930.3663003663004,787.7289377289378,-0.013489,0.139526,1.025696,5.981445,-3.506622,-0.822449,1,1,1,1,4,30.000000
2024-02-29 12:28:07.702,0.2286472333500104,0.1320669045053959,0.1077413171549436,0.413793850486227,0.5329141507285995,0.001770052381256115,-0.06838847289118388,0.7525849141599011,0.4809844181478862,0.1874399814151497,0.1282877562286722,0.2258303665641255,0.3913490657186728,-0.1679163456067225,-0.04677113891846599,0.6697035393433953,0.2828438924530001,-0.5189433108850832,-0.5704443271309578,0.6934397730964775,890.0732600732601,815.5311355311355,811.0989010989011,1252.307692307692,1021.831501831502,-0.011841,0.149414,1.023560,5.929108,-2.871094,-2.033691,1,1,1,1,4,30.000000
2024-02-29 12:28:07.703,0.2286472333500104,0.1320669045053959,0.1077413171549436,0.413793850486227,0.5329141507285995,0.001770052381256115,-0.06838847289118388,0.7525849141599011,0.4809844181478862,0.1874399814151497,0.1282877562286722,0.2258303665641255,0.3913490657186728,-0.1679163456067225,-0.04677113891846599,0.6697035393433953,0.2828438924530001,-0.5189433108850832,-0.5704443271309578,0.6934397730964775,841.3186813186813,812.3076923076924,812.7106227106227,1017.802197802198,1061.318681318681,-0.011841,0.149414,1.023560,5.929108,-2.871094,-2.033691,1,1,1,1,4,30.000000
2024-02-29 12:28:07.703,0.2286472333500104,0.1320669045053959,0.1077413171549436,0.413793850486227,0.5329141507285995,0.001770052381256115,-0.06838847289118388,0.7525849141599011,0.4809844181478862,0.1874399814151497,0.1282877562286722,0.2258303665641255,0.3913490657186728,-0.1679163456067225,-0.04677113891846599,0.6697035393433953,0.2828438924530001,-0.5189433108850832,-0.5704443271309578,0.6934397730964775,763.956043956044,807.4725274725275,808.6813186813187,576.1904761904763,995.6410256410256,-0.011841,0.149414,1.023560,5.929108,-2.871094,-2.033691,1,1,1,1,4,30.000000
2024-02-29 12:28:07.703,0.2286472333500104,0.1320669045053959,0.1077413171549436,0.413793850486227,0.5329141507285995,0.001770052381256115,-0.06838847289118388,0.7525849141599011,0.4809844181478862,0.1874399814151497,0.1282877562286722,0.2258303665641255,0.3913490657186728,-0.1679163456067225,-0.04677113891846599,0.6697035393433953,0.2828438924530001,-0.5189433108850832,-0.5704443271309578,0.6934397730964775,760.7326007326008,805.4578754578755,809.0842490842491,490.3663003663004,710.3663003663004,-0.011841,0.149414,1.023560,5.929108,-2.871094,-2.033691,1,1,1,1,4,30.000000
2024-02-29 12:28:07.704,0.2286472333500104,0.1320669045053959,0.1077413171549436,0.413793850486227,0.5329141507285995,0.001770052381256115,-0.06838847289118388,0.7525849141599011,0.4809844181478862,0.1874399814151497,0.1282877562286722,0.2258303665641255,0.3913490657186728,-0.1679163456067225,-0.04677113891846599,0.6697035393433953,0.2828438924530001,-0.5189433108850832,-0.5704443271309578,0.6934397730964775,823.1868131868132,806.2637362637363,814.3223443223443,862.6739926739926,677.7289377289377,-0.011841,0.149414,1.023560,5.929108,-2.871094,-2.033691,1,1,1,1,4,30.000000
2024-02-29 12:28:07.704,0.2286472333500104,0.1320669045053959,0.1077413171549436,0.413793850486227,0.5329141507285995,0.001770052381256115,-0.06838847289118388,0.7525849141599011,0.4809844181478862,0.1874399814151497,0.1282877562286722,0.2258303665641255,0.3913490657186728,-0.1679163456067225,-0.04677113891846599,0.6697035393433953,0.2828438924530001,-0.5189433108850832,-0.5704443271309578,0.6934397730964775,882.8205128205128,809.4871794871796,817.5457875457876,1239.010989010989,1058.901098901099,-0.011841,0.149414,1.023560,5.929108,-2.871094,-2.033691,1,1,1,1,4,30.000000
2024-02-29 12:28:07.705,0.2286472333500104,0.1320669045053959,0.1077413171549436,0.413793850486227,0.5329141507285995,0.001770052381256115,-0.06838847289118388,0.7525849141599011,0.4809844181478862,0.1874399814151497,0.1282877562286722,0.2258303665641255,0.3913490657186728,-0.1679163456067225,-0.04677113891846599,0.6697035393433953,0.2828438924530001,-0.5189433108850832,-0.5704443271309578,0.6934397730964775,853.0036630036631,813.1135531135532,820.3663003663004,1080.25641025641,1256.336996336996,-0.011841,0.149414,1.023560,5.929108,-2.871094,-2.033691,1,1,1,1,4,30.000000
2024-02-29 12:28:07.705,0.2286472333500104,0.1320669045053959,0.1077413171549436,0.413793850486227,0.5329141507285995,0.001770052381256115,-0.06838847289118388,0.7525849141599011,0.4809844181478862,0.1874399814151497,0.1282877562286722,0.2258303665641255,0.3913490657186728,-0.1679163456067225,-0.04677113891846599,0.6697035393433953,0.2828438924530001,-0.5189433108850832,-0.5704443271309578,0.6934397730964775,776.0439560439561,811.9047619047619,815.934065934066,634.6153846153846,924.7252747252747,-0.011841,0.149414,1.023560,5.929108,-2.871094,-2.033691,1,1,1,1,4,30.000000
2024-02-29 12:28:07.705,0.2286472333500104,0.1320669045053959,0.1077413171549436,0.413793850486227,0.5329141507285995,0.001770052381256115,-0.06838847289118388,0.7525849141599011,0.4809844181478862,0.1874399814151497,0.1282877562286722,0.2258303665641255,0.3913490657186728,-0.1679163456067225,-0.04677113891846599,0.6697035393433953,0.2828438924530001,-0.5189433108850832,-0.5704443271309578,0.6934397730964775,754.2857142857143,807.0695970695971,812.3076923076924,480.6959706959707,575.7875457875458,-0.011841,0.149414,1.023560,5.929108,-2.871094,-2.033691,1,1,1,1,4,30.000000
2024-02-29 12:28:07.706,0.2286472333500104,0.1320669045053959,0.1077413171549436,0.413793850486227,0.5329141507285995,0.001770052381256115,-0.06838847289118388,0.7525849141599011,0.4809844181478862,0.1874399814151497,0.1282877562286722,0.2258303665641255,0.3913490657186728,-0.1679163456067225,-0.04677113891846599,0.6697035393433953,0.2828438924530001,-0.5189433108850832,-0.5704443271309578,0.6934397730964775,813.5164835164835,809.4871794871796,813.1135531135532,822.3809523809524,765.5677655677656,-0.011841,0.149414,1.023560,5.929108,-2.871094,-2.033691,1,1,1,1,4,30.000000
2024-02-29 12:28:07.706,0.2286472333500104,0.1320669045053959,0.1077413171549436,0.413793850486227,0.5329141507285995,0.001770052381256115,-0.06838847289118388,0.7525849141599011,0.4809844181478862,0.1874399814151497,0.1282877562286722,0.2258303665641255,0.3913490657186728,-0.1679163456067225,-0.04677113891846599,0.6697035393433953,0.2828438924530001,-0.5189433108850832,-0.5704443271309578,0.6934397730964775,874.3589743589744,815.5311355311355,811.5018315018315,1199.92673992674,1054.871794871795,-0.011841,0.149414,1.023560,5.929108,-2.871094,-2.033691,1,1,1,1,4,30.000000
2024-02-29 12:28:07.707,0.2286472333500104,0.1320669045053959,0.1077413171549436,0.413793850486227,0.5329141507285995,0.001770052381256115,-0.06838847289118388,0.7525849141599011,0.4809844181478862,0.1874399814151497,0.1282877562286722,0.2258303665641255,0.3913490657186728,-0.1679163456067225,-0.04677113891846599,0.6697035393433953,0.2828438924530001,-0.5189433108850832,-0.5704443271309578,0.6934397730964775,850.1831501831502,816.7399267399268,808.2783882783883,1097.582417582418,1066.556776556777,-0.011841,0.149414,1.023560,5.929108,-2.871094,-2.033691,1,1,1,1,4,30.000000
2024-02-29 12:28:07.708,0.2286472333500104,0.1320669045053959,0.1077413171549436,0.413793850486227,0.5329141507285995,0.001770052381256115,-0.06838847289118388,0.7525849141599011,0.4809844181478862,0.1874399814151497,0.1282877562286722,0.2258303665641255,0.3913490657186728,-0.1679163456067225,-0.04677113891846599,0.6697035393433953,0.2828438924530001,-0.5189433108850832,-0.5704443271309578,0.6934397730964775,778.4615384615385,814.3223443223443,809.4871794871796,666.8498168498169,822.7838827838829,-0.011841,0.149414,1.023560,5.929108,-2.871094,-2.033691,1,1,1,1,4,30.000000
2024-02-29 12:28:07.708,0.2286472333500104,0.1320669045053959,0.1077413171549436,0.413793850486227,0.5329141507285995,0.001770052381256115,-0.06838847289118388,0.7525849141599011,0.4809844181478862,0.1874399814151497,0.1282877562286722,0.2258303665641255,0.3913490657186728,-0.1679163456067225,-0.04677113891846599,0.6697035393433953,0.2828438924530001,-0.5189433108850832,-0.5704443271309578,0.6934397730964775,751.0622710622711,810.2930402930403,809.4871794871796,444.8351648351648,579.8168498168499,-0.011841,0.149414,1.023560,5.929108,-2.871094,-2.033691,1,1,1,1,4,30.000000
2024-02-29 12:28:07.709,0.2286472333500104,0.1320669045053959,0.1077413171549436,0.413793850486227,0.5329141507285995,0.001770052381256115,-0.06838847289118388,0.7525849141599011,0.4809844181478862,0.1874399814151497,0.1282877562286722,0.2258303665641255,0.3913490657186728,-0.1679163456067225,-0.04677113891846599,0.6697035393433953,0.2828438924530001,-0.5189433108850832,-0.5704443271309578,0.6934397730964775,805.8608058608058,807.0695970695971,806.2637362637363,753.4798534798535,723.2600732600732,-0.011841,0.149414,1.023560,5.929108,-2.871094,-2.033691,1,1,1,1,4,30.000000
2024-02-29 12:28:07.709,0.2286472333500104,0.1320669045053959,0.1077413171549436,0.413793850486227,0.5329141507285995,0.001770052381256115,-0.06838847289118388,0.7525849141599011,0.4809844181478862,0.1874399814151497,0.1282877562286722,0.2258303665641255,0.3913490657186728,-0.1679163456067225,-0.04677113891846599,0.6697035393433953,0.2828438924530001,-0.5189433108850832,-0.5704443271309578,0.6934397730964775,867.1062271062272,809.0842490842491,808.6813186813187,1162.857142857143,957.7655677655678,-0.011841,0.149414,1.023560,5.929108,-2.871094,-2.033691,1,1,1,1,4,30.000000
2024-02-29 12:28:07.710,0.2286472333500104,0.1320669045053959,0.1077413171549436,0.413793850486227,0.5329141507285995,0.001770052381256115,-0.06838847289118388,0.7525849141599011,0.4809844181478862,0.1874399814151497,0.1282877562286722,0.2258303665641255,0.3913490657186728,-0.1679163456067225,-0.04677113891846599,0.6697035393433953,0.2828438924530001,-0.5189433108850832,-0.5704443271309578,0.6934397730964775,855.0183150183151,809.8901098901099,811.9047619047619,1137.875457875458,1000.879120879121,-0.011841,0.149414,1.023560,5.929108,-2.871094,-2.033691,1,1,1,1,4,30.000000
2024-02-29 12:28:07.710,0.2286472333500104,0.1320669045053959,0.1077413171549436,0.413793850486227,0.5329141507285995,0.001770052381256115,-0.06838847289118388,0.7525849141599011,0.4809844181478862,0.1874399814151497,0.1282877562286722,0.2258303665641255,0.3913490657186728,-0.1679163456067225,-0.04677113891846599,0.6697035393433953,0.2828438924530001,-0.5189433108850832,-0.5704443271309578,0.6934397730964775,794.5787545787546,808.2783882783883,811.5018315018315,737.7655677655678,1047.216117216117,-0.011841,0.149414,1.023560,5.929108,-2.871094,-2.033691,1,1,1,1,4,30.000000
2024-02-29 12:28:07.710,0.2286472333500104,0.1320669045053959,0.1077413171549436,0.413793850486227,0.5329141507285995,0.001770052381256115,-0.06838847289118388,0.7525849141599011,0.4809844181478862,0.1874399814151497,0.1282877562286722,0.2258303665641255,0.3913490657186728,-0.1679163456067225,-0.04677113891846599,0.6697035393433953,0.2828438924530001,-0.5189433108850832,-0.5704443271309578,0.6934397730964775,751.0622710622711,806.6666666666667,807.4725274725275,460.1465201465202,917.0695970695971,-0.011841,0.149414,1.023560,5.929108,-2.871094,-2.033691,1,1,1,1,4,30.000000
2024-02-29 12:28:07.711,0.2376866485786348,0.1384412474910284,0.08813826409272893,0.413793850486227,0.548105908643874,0.0101688110784878,-0.0828723552424406,0.7525849141599011,0.4745402072144471,0.1874399814151497,0.1198083091877215,0.2258303665641255,0.3870644972165707,-0.1753543884573801,-0.04569732379994798,0.6697035393433953,0.2807658435188924,-0.5309868277859873,-0.5646750441024071,0.6934397730964775,792.5641025641025,809.4871794871796,810.2930402930403,691.4285714285714,711.1721611721612,-0.011841,0.149414,1.023560,5.929108,-2.871094,-2.033691,1,1,1,1,4,30.000000
2024-02-29 12:28:07.712,0.2376866485786348,0.1384412474910284,0.08813826409272893,0.413793850486227,0.548105908643874,0.0101688110784878,-0.0828723552424406,0.7525849141599011,0.4745402072144471,0.1874399814151497,0.1198083091877215,0.2258303665641255,0.3870644972165707,-0.1753543884573801,-0.04569732379994798,0.6697035393433953,0.2807658435188924,-0.5309868277859873,-0.5646750441024071,0.6934397730964775,871.1355311355312,814.7252747252747,815.1282051282052,1111.684981684982,898.9377289377289,-0.011841,0.149414,1.023560,5.929108,-2.871094,-2.033691,1,1,1,1,4,30.000000
2024-02-29 12:28:07.712,0.2376866485786348,0.1384412474910284,0.08813826409272893,0.413793850486227,0.548105908643874,0.0101688110784878,-0.0828723552424406,0.7525849141599011,0.4745402072144471,0.1874399814151497,0.1198083091877215,0.2258303665641255,0.3870644972165707,-0.1753543884573801,-0.04569732379994798,0.6697035393433953,0.2807658435188924,-0.5309868277859873,-0.5646750441024071,0.6934397730964775,875.1648351648352,817.1428571428571,817.1428571428571,1162.857142857143,1085.091575091575,-0.011841,0.149414,1.023560,5.929108,-2.871094,-2.033691,1,1,1,1,4,30.000000
2024-02-29 12:28:07.713,0.2376866485786348,0.1384412474910284,0.08813826409272893,0.413793850486227,0.548105908643874,0.0101688110784878,-0.0828723552424406,0.7525849141599011,0.4745402072144471,0.1874399814151497,0.1198083091877215,0.2258303665641255,0.3870644972165707,-0.1753543884573801,-0.04569732379994798,0.6697035393433953,0.2807658435188924,-0.5309868277859873,-0.5646750441024071,0.6934397730964775,803.040293040293,813.5164835164835,811.5018315018315,768.7912087912088,916.2637362637363,-0.011841,0.149414,1.023560,5.929108,-2.871094,-2.033691,1,1,1,1,4,30.000000
2024-02-29 12:28:07.713,0.2376866485786348,0.1384412474910284,0.08813826409272893,0.413793850486227,0.548105908643874,0.0101688110784878,-0.0828723552424406,0.7525849141599011,0.4745402072144471,0.1874399814151497,0.1198083091877215,0.2258303665641255,0.3870644972165707,-0.1753543884573801,-0.04569732379994798,0.6697035393433953,0.2807658435188924,-0.5309868277859873,-0.5646750441024071,0.6934397730964775,754.2857142857143,807.8754578754579,805.0549450549451,454.5054945054945,614.0659340659341,-0.011841,0.149414,1.023560,5.929108,-2.871094,-2.033691,1,1,1,1,4,30.000000
2024-02-29 12:28:07.713,0.2376866485786348,0.1384412474910284,0.08813826409272893,0.413793850486227,0.548105908643874,0.0101688110784878,-0.0828723552424406,0.7525849141599011,0.4745402072144471,0.1874399814151497,0.1198083091877215,0.2258303665641255,0.3870644972165707,-0.1753543884573801,-0.04569732379994798,0.6697035393433953,0.2807658435188924,-0.5309868277859873,-0.5646750441024071,0.6934397730964775,789.7435897435897,803.4432234432235,810.6959706959707,642.6739926739926,662.014652014652,-0.015015,0.145020,1.022644,4.673004,-2.871094,-2.265472,1,1,1,1,4,30.000000
2024-02-29 12:28:07.714,0.2376866485786348,0.1384412474910284,0.08813826409272893,0.413793850486227,0.548105908643874,0.0101688110784878,-0.0828723552424406,0.7525849141599011,0.4745402072144471,0.1874399814151497,0.1198083091877215,0.2258303665641255,0.3870644972165707,-0.1753543884573801,-0.04569732379994798,0.6697035393433953,0.2807658435188924,-0.5309868277859873,-0.5646750441024071,0.6934397730964775,852.1978021978023,804.2490842490843,814.7252747252747,1056.080586080586,929.1575091575091,-0.015015,0.145020,1.022644,4.673004,-2.871094,-2.265472,1,1,1,1,4,30.000000
2024-02-29 12:28:07.714,0.2376866485786348,0.1384412474910284,0.08813826409272893,0.413793850486227,0.548105908643874,0.0101688110784878,-0.0828723552424406,0.7525849141599011,0.4745402072144471,0.1874399814151497,0.1198083091877215,0.2258303665641255,0.3870644972165707,-0.1753543884573801,-0.04569732379994798,0.6697035393433953,0.2807658435188924,-0.5309868277859873,-0.5646750441024071,0.6934397730964775,864.2857142857143,808.2783882783883,808.6813186813187,1176.556776556777,1045.201465201465,-0.015015,0.145020,1.022644,4.673004,-2.871094,-2.265472,1,1,1,1,4,30.000000
2024-02-29 12:28:07.715,0.2376866485786348,0.1384412474910284,0.08813826409272893,0.413793850486227,0.548105908643874,0.0101688110784878,-0.0828723552424406,0.7525849141599011,0.4745402072144471,0.1874399814151497,0.1198083091877215,0.2258303665641255,0.3870644972165707,-0.1753543884573801,-0.04569732379994798,0.6697035393433953,0.2807658435188924,-0.5309868277859873,-0.5646750441024071,0.6934397730964775,806.2637362637363,807.0695970695971,807.0695970695971,810.6959706959707,869.5238095238095,-0.015015,0.145020,1.022644,4.673004,-2.871094,-2.265472,1,1,1,1,4,30.000000
2024-02-29 12:28:07.715,0.2376866485786348,0.1384412474910284,0.08813826409272893,0.413793850486227,0.548105908643874,0.0101688110784878,-0.0828723552424406,0.7525849141599011,0.4745402072144471,0.1874399814151497,0.1198083091877215,0.2258303665641255,0.3870644972165707,-0.1753543884573801,-0.04569732379994798,0.6697035393433953,0.2807658435188924,-0.5309868277859873,-0.5646750441024071,0.6934397730964775,755.0915750915751,803.4432234432235,808.2783882783883,459.7435897435898,679.7435897435897,-0.015015,0.145020,1.022644,4.673004,-2.871094,-2.265472,1,1,1,1,4,30.000000
2024-02-29 12:28:07.715,0.2376866485786348,0.1384412474910284,0.08813826409272893,0.413793850486227,0.548105908643874,0.0101688110784878,-0.0828723552424406,0.7525849141599011,0.4745402072144471,0.1874399814151497,0.1198083091877215,0.2258303665641255,0.3870644972165707,-0.1753543884573801,-0.04569732379994798,0.6697035393433953,0.2807658435188924,-0.5309868277859873,-0.5646750441024071,0.6934397730964775,784.1025641025641,802.2344322344322,806.2637362637363,600.3663003663004,816.7399267399268,-0.015015,0.145020,1.022644,4.673004,-2.871094,-2.265472,1,1,1,1,4,30.000000
2024-02-29 12:28:07.716,0.2376866485786348,0.1384412474910284,0.08813826409272893,0.413793850486227,0.548105908643874,0.0101688110784878,-0.0828723552424406,0.7525849141599011,0.4745402072144471,0.1874399814151497,0.1198083091877215,0.2258303665641255,0.3870644972165707,-0.1753543884573801,-0.04569732379994798,0.6697035393433953,0.2807658435188924,-0.5309868277859873,-0.5646750441024071,0.6934397730964775,853.8095238095239,809.4871794871796,805.4578754578755,1006.923076923077,921.0989010989011,-0.015015,0.145020,1.022644,4.673004,-2.871094,-2.265472,1,1,1,1,4,30.000000
2024-02-29 12:28:07.716,0.2376866485786348,0.1384412474910284,0.08813826409272893,0.413793850486227,0.548105908643874,0.0101688110784878,-0.0828723552424406,0.7525849141599011,0.4745402072144471,0.1874399814151497,0.1198083091877215,0.2258303665641255,0.3870644972165707,-0.1753543884573801,-0.04569732379994798,0.6697035393433953,0.2807658435188924,-0.5309868277859873,-0.5646750441024071,0.6934397730964775,881.2087912087912,812.7106227106227,805.4578754578755,1189.047619047619,1004.102564102564,-0.015015,0.145020,1.022644,4.673004,-2.871094,-2.265472,1,1,1,1,4,30.000000
2024-02-29 12:28:07.717,0.2376866485786348,0.1384412474910284,0.08813826409272893,0.413793850486227,0.548105908643874,0.0101688110784878,-0.0828723552424406,0.7525849141599011,0.4745402072144471,0.1874399814151497,0.1198083091877215,0.2258303665641255,0.3870644972165707,-0.1753543884573801,-0.04569732379994798,0.6697035393433953,0.2807658435188924,-0.5309868277859873,-0.5646750441024071,0.6934397730964775,815.1282051282052,807.8754578754579,803.4432234432235,859.8534798534798,1051.245421245421,-0.015015,0.145020,1.022644,4.673004,-2.871094,-2.265472,1,1,1,1,4,30.000000
2024-02-29 12:28:07.717,0.2376866485786348,0.1384412474910284,0.08813826409272893,0.413793850486227,0.548105908643874,0.0101688110784878,-0.0828723552424406,0.7525849141599011,0.4745402072144471,0.1874399814151497,0.1198083091877215,0.2258303665641255,0.3870644972165707,-0.1753543884573801,-0.04569732379994798,0.6697035393433953,0.2807658435188924,-0.5309868277859873,-0.5646750441024071,0.6934397730964775,748.6446886446887,803.8461538461539,801.8315018315019,475.8608058608059,865.0915750915751,-0.015015,0.145020,1.022644,4.673004,-2.871094,-2.265472,1,1,1,1,4,30.000000
2024-02-29 12:28:07.717,0.2376866485786348,0.1384412474910284,0.08813826409272893,0.413793850486227,0.548105908643874,0.0101688110784878,-0.0828723552424406,0.7525849141599011,0.4745402072144471,0.1874399814151497,0.1198083091877215,0.2258303665641255,0.3870644972165707,-0.1753543884573801,-0.04569732379994798,0.6697035393433953,0.2807658435188924,-0.5309868277859873,-0.5646750441024071,0.6934397730964775,770.4029304029305,806.2637362637363,804.2490842490843,540.3296703296703,635.8241758241759,-0.015015,0.145020,1.022644,4.673004,-2.871094,-2.265472,1,1,1,1,4,30.000000
2024-02-29 12:28:07.718,0.2376866485786348,0.1384412474910284,0.08813826409272893,0.413793850486227,0.548105908643874,0.0101688110784878,-0.0828723552424406,0.7525849141599011,0.4745402072144471,0.1874399814151497,0.1198083091877215,0.2258303665641255,0.3870644972165707,-0.1753543884573801,-0.04569732379994798,0.6697035393433953,0.2807658435188924,-0.5309868277859873,-0.5646750441024071,0.6934397730964775,837.6923076923077,808.6813186813187,807.8754578754579,938.4249084249085,693.4432234432235,-0.015015,0.145020,1.022644,4.673004,-2.871094,-2.265472,1,1,1,1,4,30.000000
2024-02-29 12:28:07.719,0.2376866485786348,0.1384412474910284,0.08813826409272893,0.413793850486227,0.548105908643874,0.0101688110784878,-0.0828723552424406,0.7525849141599011,0.4745402072144471,0.1874399814151497,0.1198083091877215,0.2258303665641255,0.3870644972165707,-0.1753543884573801,-0.04569732379994798,0.6697035393433953,0.2807658435188924,-0.5309868277859873,-0.5646750441024071,0.6934397730964775,872.3443223443223,806.6666666666667,808.2783882783883,1192.673992673993,1010.952380952381,-0.022583,0.144104,1.023987,4.912262,-2.998199,-2.392578,1,1,1,1,4,30.000000
2024-02-29 12:28:07.720,0.2376866485786348,0.1384412474910284,0.08813826409272893,0.413793850486227,0.548105908643874,0.0101688110784878,-0.0828723552424406,0.7525849141599011,0.4745402072144471,0.1874399814151497,0.1198083091877215,0.2258303665641255,0.3870644972165707,-0.1753543884573801,-0.04569732379994798,0.6697035393433953,0.2807658435188924,-0.5309868277859873,-0.5646750441024071,0.6934397730964775,821.5750915750916,810.2930402930403,805.4578754578755,906.5934065934066,1006.923076923077,-0.022583,0.144104,1.023987,4.912262,-2.998199,-2.392578,1,1,1,1,4,30.000000
2024-02-29 12:28:07.720,0.2376866485786348,0.1384412474910284,0.08813826409272893,0.413793850486227,0.548105908643874,0.0101688110784878,-0.0828723552424406,0.7525849141599011,0.4745402072144471,0.1874399814151497,0.1198083091877215,0.2258303665641255,0.3870644972165707,-0.1753543884573801,-0.04569732379994798,0.6697035393433953,0.2807658435188924,-0.5309868277859873,-0.5646750441024071,0.6934397730964775,760.7326007326008,816.3369963369963,805.8608058608058,506.0805860805861,703.1135531135532,-0.022583,0.144104,1.023987,4.912262,-2.998199,-2.392578,1,1,1,1,4,30.000000
2024-02-29 12:28:07.720,0.2376866485786348,0.1384412474910284,0.08813826409272893,0.413793850486227,0.548105908643874,0.0101688110784878,-0.0828723552424406,0.7525849141599011,0.4745402072144471,0.1874399814151497,0.1198083091877215,0.2258303665641255,0.3870644972165707,-0.1753543884573801,-0.04569732379994798,0.6697035393433953,0.2807658435188924,-0.5309868277859873,-0.5646750441024071,0.6934397730964775,767.1794871794872,811.5018315018315,804.6520146520147,511.3186813186813,577.8021978021978,-0.022583,0.144104,1.023987,4.912262,-2.998199,-2.392578,1,1,1,1,4,30.000000
2024-02-29 12:28:07.721,0.2376866485786348,0.1384412474910284,0.08813826409272893,0.413793850486227,0.548105908643874,0.0101688110784878,-0.0828723552424406,0.7525849141599011,0.4745402072144471,0.1874399814151497,0.1198083091877215,0.2258303665641255,0.3870644972165707,-0.1753543884573801,-0.04569732379994798,0.6697035393433953,0.2807658435188924,-0.5309868277859873,-0.5646750441024071,0.6934397730964775,830.0366300366301,807.8754578754579,803.4432234432235,892.0879120879121,764.7619047619048,-0.022583,0.144104,1.023987,4.912262,-2.998199,-2.392578,1,1,1,1,4,30.000000
2024-02-29 12:28:07.721,0.2376866485786348,0.1384412474910284,0.08813826409272893,0.413793850486227,0.548105908643874,0.0101688110784878,-0.0828723552424406,0.7525849141599011,0.4745402072144471,0.1874399814151497,0.1198083091877215,0.2258303665641255,0.3870644972165707,-0.1753543884573801,-0.04569732379994798,0.6697035393433953,0.2807658435188924,-0.5309868277859873,-0.5646750441024071,0.6934397730964775,882.8205128205128,811.0989010989011,805.4578754578755,1201.941391941392,1075.018315018315,-0.022583,0.144104,1.023987,4.912262,-2.998199,-2.392578,1,1,1,1,4,30.000000
2024-02-29 12:28:07.722,0.2376866485786348,0.1384412474910284,0.08813826409272893,0.413793850486227,0.548105908643874,0.0101688110784878,-0.0828723552424406,0.7525849141599011,0.4745402072144471,0.1874399814151497,0.1198083091877215,0.2258303665641255,0.3870644972165707,-0.1753543884573801,-0.04569732379994798,0.6697035393433953,0.2807658435188924,-0.5309868277859873,-0.5646750441024071,0.6934397730964775,839.7069597069598,813.5164835164835,805.0549450549451,972.6739926739928,1037.545787545788,-0.022583,0.144104,1.023987,4.912262,-2.998199,-2.392578,1,1,1,1,4,30.000000
2024-02-29 12:28:07.722,0.2376866485786348,0.1384412474910284,0.08813826409272893,0.413793850486227,0.548105908643874,0.0101688110784878,-0.0828723552424406,0.7525849141599011,0.4745402072144471,0.1874399814151497,0.1198083091877215,0.2258303665641255,0.3870644972165707,-0.1753543884573801,-0.04569732379994798,0.6697035393433953,0.2807658435188924,-0.5309868277859873,-0.5646750441024071,0.6934397730964775,765.9706959706959,809.8901098901099,801.025641025641,543.1501831501831,737.3626373626374,-0.022583,0.144104,1.023987,4.912262,-2.998199,-2.392578,1,1,1,1,4,30.000000
2024-02-29 12:28:07.722,0.2376866485786348,0.1384412474910284,0.08813826409272893,0.413793850486227,0.548105908643874,0.0101688110784878,-0.0828723552424406,0.7525849141599011,0.4745402072144471,0.1874399814151497,0.1198083091877215,0.2258303665641255,0.3870644972165707,-0.1753543884573801,-0.04569732379994798,0.6697035393433953,0.2807658435188924,-0.5309868277859873,-0.5646750441024071,0.6934397730964775,757.1062271062272,801.4285714285714,796.996336996337,483.5164835164835,739.3772893772893,-0.022583,0.144104,1.023987,4.912262,-2.998199,-2.392578,1,1,1,1,4,30.000000
2024-02-29 12:28:07.723,0.2492772367387491,0.1395866463282064,0.06197732894299229,0.413793850486227,0.559646226349812,0.00849085460081412,-0.09559592627858809,0.7525849141599011,0.4704004299214754,0.1866013918949323,0.1198083091877215,0.2258303665641255,0.3764466054755498,-0.1771233586997903,-0.04813167895411026,0.6697035393433953,0.2849151903980034,-0.5329139115792298,-0.563102788028372,0.6934397730964775,820.3663003663004,804.2490842490843,802.6373626373627,850.989010989011,916.6666666666667,-0.022583,0.144104,1.023987,4.912262,-2.998199,-2.392578,1,1,1,1,2,30.000000
2024-02-29 12:28:07.724,0.2492772367387491,0.1395866463282064,0.06197732894299229,0.413793850486227,0.559646226349812,0.00849085460081412,-0.09559592627858809,0.7525849141599011,0.4704004299214754,0.1866013918949323,0.1198083091877215,0.2258303665641255,0.3764466054755498,-0.1771233586997903,-0.04813167895411026,0.6697035393433953,0.2849151903980034,-0.5329139115792298,-0.563102788028372,0.6934397730964775,877.5824175824176,811.9047619047619,809.4871794871796,1173.736263736264,976.3003663003664,-0.022583,0.144104,1.023987,4.912262,-2.998199,-2.392578,1,1,1,1,2,30.000000
2024-02-29 12:28:07.724,0.2492772367387491,0.1395866463282064,0.06197732894299229,0.413793850486227,0.559646226349812,0.00849085460081412,-0.09559592627858809,0.7525849141599011,0.4704004299214754,0.1866013918949323,0.1198083091877215,0.2258303665641255,0.3764466054755498,-0.1771233586997903,-0.04813167895411026,0.6697035393433953,0.2849151903980034,-0.5329139115792298,-0.563102788028372,0.6934397730964775,840.9157509157509,812.3076923076924,806.6666666666667,1004.908424908425,962.6007326007326,-0.022583,0.144104,1.023987,4.912262,-2.998199,-2.392578,1,1,1,1,2,30.000000
2024-02-29 12:28:07.725,0.2492772367387491,0.1395866463282064,0.06197732894299229,0.413793850486227,0.559646226349812,0.00849085460081412,-0.09559592627858809,0.7525849141599011,0.4704004299214754,0.1866013918949323,0.1198083091877215,0.2258303665641255,0.3764466054755498,-0.1771233586997903,-0.04813167895411026,0.6697035393433953,0.2849151903980034,-0.5329139115792298,-0.563102788028372,0.6934397730964775,766.3736263736264,805.4578754578755,804.6520146520147,595.934065934066,824.3956043956044,-0.017273,0.150879,1.018738,5.532837,-3.140259,-1.659851,1,1,1,1,2,30.000000
2024-02-29 12:28:07.725,0.2492772367387491,0.1395866463282064,0.06197732894299229,0.413793850486227,0.559646226349812,0.00849085460081412,-0.09559592627858809,0.7525849141599011,0.4704004299214754,0.1866013918949323,0.1198083091877215,0.2258303665641255,0.3764466054755498,-0.1771233586997903,-0.04813167895411026,0.6697035393433953,0.2849151903980034,-0.5329139115792298,-0.563102788028372,0.6934397730964775,750.6593406593407,802.2344322344322,807.8754578754579,456.923076923077,638.6446886446887,-0.017273,0.150879,1.018738,5.532837,-3.140259,-1.659851,1,1,1,1,2,30.000000
2024-02-29 12:28:07.726,0.2492772367387491,0.1395866463282064,0.06197732894299229,0.413793850486227,0.559646226349812,0.00849085460081412,-0.09559592627858809,0.7525849141599011,0.4704004299214754,0.1866013918949323,0.1198083091877215,0.2258303665641255,0.3764466054755498,-0.1771233586997903,-0.04813167895411026,0.6697035393433953,0.2849151903980034,-0.5329139115792298,-0.563102788028372,0.6934397730964775,809.4871794871796,804.6520146520147,809.4871794871796,785.3113553113553,672.893772893773,-0.017273,0.150879,1.018738,5.532837,-3.140259,-1.659851,1,1,1,1,2,30.000000
2024-02-29 12:28:07.726,0.2492772367387491,0.1395866463282064,0.06197732894299229,0.413793850486227,0.559646226349812,0.00849085460081412,-0.09559592627858809,0.7525849141599011,0.4704004299214754,0.1866013918949323,0.1198083091877215,0.2258303665641255,0.3764466054755498,-0.1771233586997903,-0.04813167895411026,0.6697035393433953,0.2849151903980034,-0.5329139115792298,-0.563102788028372,0.6934397730964775,871.5384615384615,806.2637362637363,809.0842490842491,1162.454212454212,994.8351648351648,-0.017273,0.150879,1.018738,5.532837,-3.140259,-1.659851,1,1,1,1,2,30.000000
2024-02-29 12:28:07.726,0.2492772367387491,0.1395866463282064,0.06197732894299229,0.413793850486227,0.559646226349812,0.00849085460081412,-0.09559592627858809,0.7525849141599011,0.4704004299214754,0.1866013918949323,0.1198083091877215,0.2258303665641255,0.3764466054755498,-0.1771233586997903,-0.04813167895411026,0.6697035393433953,0.2849151903980034,-0.5329139115792298,-0.563102788028372,0.6934397730964775,851.3919413919414,806.2637362637363,807.8754578754579,1051.648351648352,1159.230769230769,-0.017273,0.150879,1.018738,5.532837,-3.140259,-1.659851,1,1,1,1,2,30.000000
2024-02-29 12:28:07.727,0.2492772367387491,0.1395866463282064,0.06197732894299229,0.413793850486227,0.559646226349812,0.00849085460081412,-0.09559592627858809,0.7525849141599011,0.4704004299214754,0.1866013918949323,0.1198083091877215,0.2258303665641255,0.3764466054755498,-0.1771233586997903,-0.04813167895411026,0.6697035393433953,0.2849151903980034,-0.5329139115792298,-0.563102788028372,0.6934397730964775,776.8498168498169,804.2490842490843,806.2637362637363,635.4212454212454,887.6556776556777,-0.017273,0.150879,1.018738,5.532837,-3.140259,-1.659851,1,1,1,1,2,30.000000
2024-02-29 12:28:07.727,0.2492772367387491,0.1395866463282064,0.06197732894299229,0.413793850486227,0.559646226349812,0.00849085460081412,-0.09559592627858809,0.7525849141599011,0.4704004299214754,0.1866013918949323,0.1198083091877215,0.2258303665641255,0.3764466054755498,-0.1771233586997903,-0.04813167895411026,0.6697035393433953,0.2849151903980034,-0.5329139115792298,-0.563102788028372,0.6934397730964775,752.6739926739926,801.4285714285714,809.4871794871796,444.0293040293041,580.2197802197802,-0.017273,0.150879,1.018738,5.532837,-3.140259,-1.659851,1,1,1,1,2,30.000000
2024-02-29 12:28:07.728,0.2492772367387491,0.1395866463282064,0.06197732894299229,0.413793850486227,0.559646226349812,0.00849085460081412,-0.09559592627858809,0.7525849141599011,0.4704004299214754,0.1866013918949323,0.1198083091877215,0.2258303665641255,0.3764466054755498,-0.1771233586997903,-0.04813167895411026,0.6697035393433953,0.2849151903980034,-0.5329139115792298,-0.563102788028372,0.6934397730964775,804.6520146520147,801.025641025641,810.6959706959707,732.1245421245421,739.3772893772893,-0.017273,0.150879,1.018738,5.532837,-3.140259,-1.659851,1,1,1,1,2,30.000000
2024-02-29 12:28:07.728,0.2492772367387491,0.1395866463282064,0.06197732894299229,0.413793850486227,0.559646226349812,0.00849085460081412,-0.09559592627858809,0.7525849141599011,0.4704004299214754,0.1866013918949323,0.1198083091877215,0.2258303665641255,0.3764466054755498,-0.1771233586997903,-0.04813167895411026,0.6697035393433953,0.2849151903980034,-0.5329139115792298,-0.563102788028372,0.6934397730964775,859.047619047619,801.4285714285714,810.6959706959707,1126.593406593407,1070.586080586081,-0.017273,0.150879,1.018738,5.532837,-3.140259,-1.659851,1,1,1,1,2,30.000000
2024-02-29 12:28:07.728,0.2492772367387491,0.1395866463282064,0.06197732894299229,0.413793850486227,0.559646226349812,0.00849085460081412,-0.09559592627858809,0.7525849141599011,0.4704004299214754,0.1866013918949323,0.1198083091877215,0.2258303665641255,0.3764466054755498,-0.1771233586997903,-0.04813167895411026,0.6697035393433953,0.2849151903980034,-0.5329139115792298,-0.563102788028372,0.6934397730964775,848.5714285714286,803.4432234432235,811.9047619047619,1093.553113553114,1037.948717948718,-0.017273,0.150879,1.018738,5.532837,-3.140259,-1.659851,1,1,1,1,2,30.000000
2024-02-29 12:28:07.729,0.2492772367387491,0.1395866463282064,0.06197732894299229,0.413793850486227,0.559646226349812,0.00849085460081412,-0.09559592627858809,0.7525849141599011,0.4704004299214754,0.1866013918949323,0.1198083091877215,0.2258303665641255,0.3764466054755498,-0.1771233586997903,-0.04813167895411026,0.6697035393433953,0.2849151903980034,-0.5329139115792298,-0.563102788028372,0.6934397730964775,786.5201465201466,802.2344322344322,809.8901098901099,695.8608058608058,794.5787545787546,-0.017273,0.150879,1.018738,5.532837,-3.140259,-1.659851,1,1,1,1,2,30.000000
2024-02-29 12:28:07.729,0.2492772367387491,0.1395866463282064,0.06197732894299229,0.413793850486227,0.559646226349812,0.00849085460081412,-0.09559592627858809,0.7525849141599011,0.4704004299214754,0.1866013918949323,0.1198083091877215,0.2258303665641255,0.3764466054755498,-0.1771233586997903,-0.04813167895411026,0.6697035393433953,0.2849151903980034,-0.5329139115792298,-0.563102788028372,0.6934397730964775,748.6446886446887,796.1904761904763,808.2783882783883,457.7289377289378,624.5421245421246,-0.017273,0.150879,1.018738,5.532837,-3.140259,-1.659851,1,1,1,1,2,30.000000
2024-02-29 12:28:07.731,0.2492772367387491,0.1395866463282064,0.06197732894299229,0.413793850486227,0.559646226349812,0.00849085460081412,-0.09559592627858809,0.7525849141599011,0.4704004299214754,0.1866013918949323,0.1198083091877215,0.2258303665641255,0.3764466054755498,-0.1771233586997903,-0.04813167895411026,0.6697035393433953,0.2849151903980034,-0.5329139115792298,-0.563102788028372,0.6934397730964775,798.6080586080586,800.2197802197802,811.0989010989011,716.4102564102565,676.1172161172161,-0.023376,0.145569,1.018677,5.106659,-3.723450,-2.056122,1,1,1,1,2,30.000000
2024-02-29 12:28:07.731,0.2492772367387491,0.1395866463282064,0.06197732894299229,0.413793850486227,0.559646226349812,0.00849085460081412,-0.09559592627858809,0.7525849141599011,0.4704004299214754,0.1866013918949323,0.1198083091877215,0.2258303665641255,0.3764466054755498,-0.1771233586997903,-0.04813167895411026,0.6697035393433953,0.2849151903980034,-0.5329139115792298,-0.563102788028372,0.6934397730964775,864.6886446886447,808.2783882783883,811.9047619047619,1091.941391941392,854.6153846153846,-0.023376,0.145569,1.018677,5.106659,-3.723450,-2.056122,1,1,1,1,2,30.000000
2024-02-29 12:28:07.731,0.2492772367387491,0.1395866463282064,0.06197732894299229,0.413793850486227,0.559646226349812,0.00849085460081412,-0.09559592627858809,0.7525849141599011,0.4704004299214754,0.1866013918949323,0.1198083091877215,0.2258303665641255,0.3764466054755498,-0.1771233586997903,-0.04813167895411026,0.6697035393433953,0.2849151903980034,-0.5329139115792298,-0.563102788028372,0.6934397730964775,863.4798534798535,805.8608058608058,811.5018315018315,1122.564102564103,949.7069597069598,-0.023376,0.145569,1.018677,5.106659,-3.723450,-2.056122,1,1,1,1,2,30.000000
2024-02-29 12:28:07.732,0.2492772367387491,0.1395866463282064,0.06197732894299229,0.413793850486227,0.559646226349812,0.00849085460081412,-0.09559592627858809,0.7525849141599011,0.4704004299214754,0.1866013918949323,0.1198083091877215,0.2258303665641255,0.3764466054755498,-0.1771233586997903,-0.04813167895411026,0.6697035393433953,0.2849151903980034,-0.5329139115792298,-0.563102788028372,0.6934397730964775,796.5934065934066,802.2344322344322,811.0989010989011,761.1355311355312,898.9377289377289,-0.023376,0.145569,1.018677,5.106659,-3.723450,-2.056122,1,1,1,1,2,30.000000
2024-02-29 12:28:07.732,0.2492772367387491,0.1395866463282064,0.06197732894299229,0.413793850486227,0.559646226349812,0.00849085460081412,-0.09559592627858809,0.7525849141599011,0.4704004299214754,0.1866013918949323,0.1198083091877215,0.2258303665641255,0.3764466054755498,-0.1771233586997903,-0.04813167895411026,0.6697035393433953,0.2849151903980034,-0.5329139115792298,-0.563102788028372,0.6934397730964775,744.6153846153846,802.2344322344322,809.4871794871796,453.6996336996337,709.1575091575091,-0.023376,0.145569,1.018677,5.106659,-3.723450,-2.056122,1,1,1,1,2,30.000000
2024-02-29 12:28:07.733,0.2492772367387491,0.1395866463282064,0.06197732894299229,0.413793850486227,0.559646226349812,0.00849085460081412,-0.09559592627858809,0.7525849141599011,0.4704004299214754,0.1866013918949323,0.1198083091877215,0.2258303665641255,0.3764466054755498,-0.1771233586997903,-0.04813167895411026,0.6697035393433953,0.2849151903980034,-0.5329139115792298,-0.563102788028372,0.6934397730964775,783.2967032967033,804.2490842490843,811.9047619047619,650.3296703296703,585.8608058608058,-0.023376,0.145569,1.018677,5.106659,-3.723450,-2.056122,1,1,1,1,2,30.000000
2024-02-29 12:28:07.733,0.2492772367387491,0.1395866463282064,0.06197732894299229,0.413793850486227,0.559646226349812,0.00849085460081412,-0.09559592627858809,0.7525849141599011,0.4704004299214754,0.1866013918949323,0.1198083091877215,0.2258303665641255,0.3764466054755498,-0.1771233586997903,-0.04813167895411026,0.6697035393433953,0.2849151903980034,-0.5329139115792298,-0.563102788028372,0.6934397730964775,859.8534798534798,809.4871794871796,814.7252747252747,1074.212454212454,820.7692307692308,-0.023376,0.145569,1.018677,5.106659,-3.723450,-2.056122,1,1,1,1,2,30.000000
2024-02-29 12:28:07.733,0.2492772367387491,0.1395866463282064,0.06197732894299229,0.413793850486227,0.559646226349812,0.00849085460081412,-0.09559592627858809,0.7525849141599011,0.4704004299214754,0.1866013918949323,0.1198083091877215,0.2258303665641255,0.3764466054755498,-0.1771233586997903,-0.04813167895411026,0.6697035393433953,0.2849151903980034,-0.5329139115792298,-0.563102788028372,0.6934397730964775,878.3882783882784,806.6666666666667,816.7399267399268,1182.197802197802,1217.252747252747,-0.023376,0.145569,1.018677,5.106659,-3.723450,-2.056122,1,1,1,1,2,30.000000
2024-02-29 12:28:07.734,0.2492772367387491,0.1395866463282064,0.06197732894299229,0.413793850486227,0.559646226349812,0.00849085460081412,-0.09559592627858809,0.7525849141599011,0.4704004299214754,0.1866013918949323,0.1198083091877215,0.2258303665641255,0.3764466054755498,-0.1771233586997903,-0.04813167895411026,0.6697035393433953,0.2849151903980034,-0.5329139115792298,-0.563102788028372,0.6934397730964775,813.919413919414,806.6666666666667,815.5311355311355,823.1868131868132,1089.92673992674,-0.023376,0.145569,1.018677,5.106659,-3.723450,-2.056122,1,1,1,1,2,30.000000
2024-02-29 12:28:07.734,0.2492772367387491,0.1395866463282064,0.06197732894299229,0.413793850486227,0.559646226349812,0.00849085460081412,-0.09559592627858809,0.7525849141599011,0.4704004299214754,0.1866013918949323,0.1198083091877215,0.2258303665641255,0.3764466054755498,-0.1771233586997903,-0.04813167895411026,0.6697035393433953,0.2849151903980034,-0.5329139115792298,-0.563102788028372,0.6934397730964775,748.2417582417582,812.7106227106227,811.9047619047619,459.7435897435898,664.4322344322344,-0.023376,0.145569,1.018677,5.106659,-3.723450,-2.056122,1,1,1,1,2,30.000000
2024-02-29 12:28:07.735,0.2492772367387491,0.1395866463282064,0.06197732894299229,0.413793850486227,0.559646226349812,0.00849085460081412,-0.09559592627858809,0.7525849141599011,0.4704004299214754,0.1866013918949323,0.1198083091877215,0.2258303665641255,0.3764466054755498,-0.1771233586997903,-0.04813167895411026,0.6697035393433953,0.2849151903980034,-0.5329139115792298,-0.563102788028372,0.6934397730964775,761.1355311355312,812.7106227106227,809.0842490842491,574.1758241758242,657.1794871794872,-0.023376,0.145569,1.018677,5.106659,-3.723450,-2.056122,1,1,1,1,2,30.000000
2024-02-29 12:28:07.735,0.2649529037287527,0.1334850412215597,0.0126464901436775,0.413793850486227,0.5693765864812773,0.001306486730800013,-0.117002487813654,0.7525849141599011,0.4704004299214754,0.1806593196372129,0.1198083091877215,0.2258303665641255,0.3625235576579595,-0.1789396691203523,-0.0583092409522926,0.6697035393433953,0.2953258552641679,-0.5291660951946093,-0.5651468186412555,0.6934397730964775,818.7545787545788,813.919413919414,807.8754578754579,968.6446886446887,886.8498168498169,-0.023376,0.145569,1.018677,5.106659,-3.723450,-2.056122,1,1,1,1,2,30.000000
2024-02-29 12:28:07.736,0.2649529037287527,0.1334850412215597,0.0126464901436775,0.413793850486227,0.5693765864812773,0.001306486730800013,-0.117002487813654,0.7525849141599011,0.4704004299214754,0.1806593196372129,0.1198083091877215,0.2258303665641255,0.3625235576579595,-0.1789396691203523,-0.0583092409522926,0.6697035393433953,0.2953258552641679,-0.5291660951946093,-0.5651468186412555,0.6934397730964775,839.7069597069598,819.5604395604396,806.2637362637363,1146.739926739927,1043.992673992674,-0.023376,0.145569,1.018677,5.106659,-3.723450,-2.056122,1,1,1,1,2,30.000000
2024-02-29 12:28:07.737,0.2649529037287527,0.1334850412215597,0.0126464901436775,0.413793850486227,0.5693765864812773,0.001306486730800013,-0.117002487813654,0.7525849141599011,0.4704004299214754,0.1806593196372129,0.1198083091877215,0.2258303665641255,0.3625235576579595,-0.1789396691203523,-0.0583092409522926,0.6697035393433953,0.2953258552641679,-0.5291660951946093,-0.5651468186412555,0.6934397730964775,770,813.5164835164835,804.6520146520147,814.7252747252747,900.5494505494506,-0.023376,0.145569,1.018677,5.106659,-3.723450,-2.056122,1,1,1,1,2,30.000000
2024-02-29 12:28:07.737,0.2649529037287527,0.1334850412215597,0.0126464901436775,0.413793850486227,0.5693765864812773,0.001306486730800013,-0.117002487813654,0.7525849141599011,0.4704004299214754,0.1806593196372129,0.1198083091877215,0.2258303665641255,0.3625235576579595,-0.1789396691203523,-0.0583092409522926,0.6697035393433953,0.2953258552641679,-0.5291660951946093,-0.5651468186412555,0.6934397730964775,705.934065934066,808.6813186813187,804.6520146520147,439.1941391941392,695.0549450549451,-0.023376,0.145569,1.018677,5.106659,-3.723450,-2.056122,1,1,1,1,2,30.000000
2024-02-29 12:28:07.737,0.2649529037287527,0.1334850412215597,0.0126464901436775,0.413793850486227,0.5693765864812773,0.001306486730800013,-0.117002487813654,0.7525849141599011,0.4704004299214754,0.1806593196372129,0.1198083091877215,0.2258303665641255,0.3625235576579595,-0.1789396691203523,-0.0583092409522926,0.6697035393433953,0.2953258552641679,-0.5291660951946093,-0.5651468186412555,0.6934397730964775,717.2161172161173,811.0989010989011,797.3992673992674,505.6776556776557,753.0769230769231,-0.023376,0.145569,1.018677,5.106659,-3.723450,-2.056122,1,1,1,1,2,30.000000
2024-02-29 12:28:07.738,0.2649529037287527,0.1334850412215597,0.0126464901436775,0.413793850486227,0.5693765864812773,0.001306486730800013,-0.117002487813654,0.7525849141599011,0.4704004299214754,0.1806593196372129,0.1198083091877215,0.2258303665641255,0.3625235576579595,-0.1789396691203523,-0.0583092409522926,0.6697035393433953,0.2953258552641679,-0.5291660951946093,-0.5651468186412555,0.6934397730964775,768.3882783882784,809.4871794871796,795.3846153846154,876.3736263736264,871.5384615384615,-0.023376,0.145569,1.018677,5.106659,-3.723450,-2.056122,1,1,1,1,2,30.000000
2024-02-29 12:28:07.738,0.2649529037287527,0.1334850412215597,0.0126464901436775,0.413793850486227,0.5693765864812773,0.001306486730800013,-0.117002487813654,0.7525849141599011,0.4704004299214754,0.1806593196372129,0.1198083091877215,0.2258303665641255,0.3625235576579595,-0.1789396691203523,-0.0583092409522926,0.6697035393433953,0.2953258552641679,-0.5291660951946093,-0.5651468186412555,0.6934397730964775,799.8168498168499,811.9047619047619,799.0109890109891,1105.641025641026,959.3772893772895,-0.023376,0.145569,1.018677,5.106659,-3.723450,-2.056122,1,1,1,1,2,30.000000
2024-02-29 12:28:07.739,0.2649529037287527,0.1334850412215597,0.0126464901436775,0.413793850486227,0.5693765864812773,0.001306486730800013,-0.117002487813654,0.7525849141599011,0.4704004299214754,0.1806593196372129,0.1198083091877215,0.2258303665641255,0.3625235576579595,-0.1789396691203523,-0.0583092409522926,0.6697035393433953,0.2953258552641679,-0.5291660951946093,-0.5651468186412555,0.6934397730964775,742.1978021978023,812.3076923076924,794.5787545787546,815.5311355311355,1006.923076923077,-0.023376,0.145569,1.018677,5.106659,-3.723450,-2.056122,1,1,1,1,2,30.000000
2024-02-29 12:28:07.739,0.2649529037287527,0.1334850412215597,0.0126464901436775,0.413793850486227,0.5693765864812773,0.001306486730800013,-0.117002487813654,0.7525849141599011,0.4704004299214754,0.1806593196372129,0.1198083091877215,0.2258303665641255,0.3625235576579595,-0.1789396691203523,-0.0583092409522926,0.6697035393433953,0.2953258552641679,-0.5291660951946093,-0.5651468186412555,0.6934397730964775,671.6849816849817,809.0842490842491,792.1611721611722,422.6739926739927,939.2307692307693,-0.023376,0.145569,1.018677,5.106659,-3.723450,-2.056122,1,1,1,1,2,30.000000
2024-02-29 12:28:07.739,0.2649529037287527,0.1334850412215597,0.0126464901436775,0.413793850486227,0.5693765864812773,0.001306486730800013,-0.117002487813654,0.7525849141599011,0.4704004299214754,0.1806593196372129,0.1198083091877215,0.2258303665641255,0.3625235576579595,-0.1789396691203523,-0.0583092409522926,0.6697035393433953,0.2953258552641679,-0.5291660951946093,-0.5651468186412555,0.6934397730964775,672.0879120879121,811.0989010989011,797.3992673992674,430.7326007326008,704.3223443223443,-0.023376,0.145569,1.018677,5.106659,-3.723450,-2.056122,1,1,1,1,2,30.000000
2024-02-29 12:28:07.740,0.2649529037287527,0.1334850412215597,0.0126464901436775,0.413793850486227,0.5693765864812773,0.001306486730800013,-0.117002487813654,0.7525849141599011,0.4704004299214754,0.1806593196372129,0.1198083091877215,0.2258303665641255,0.3625235576579595,-0.1789396691203523,-0.0583092409522926,0.6697035393433953,0.2953258552641679,-0.5291660951946093,-0.5651468186412555,0.6934397730964775,730.5128205128206,810.6959706959707,803.8461538461539,794.981684981685,720.8424908424909,-0.023376,0.145569,1.018677,5.106659,-3.723450,-2.056122,1,1,1,1,2,30.000000
2024-02-29 12:28:07.740,0.2649529037287527,0.1334850412215597,0.0126464901436775,0.413793850486227,0.5693765864812773,0.001306486730800013,-0.117002487813654,0.7525849141599011,0.4704004299214754,0.1806593196372129,0.1198083091877215,0.2258303665641255,0.3625235576579595,-0.1789396691203523,-0.0583092409522926,0.6697035393433953,0.2953258552641679,-0.5291660951946093,-0.5651468186412555,0.6934397730964775,775.6410256410256,810.2930402930403,804.6520146520147,1083.479853479854,1021.025641025641,-0.023376,0.145569,1.018677,5.106659,-3.723450,-2.056122,1,1,1,1,2,30.000000
2024-02-29 12:28:07.741,0.2649529037287527,0.1334850412215597,0.0126464901436775,0.413793850486227,0.5693765864812773,0.001306486730800013,-0.117002487813654,0.7525849141599011,0.4704004299214754,0.1806593196372129,0.1198083091877215,0.2258303665641255,0.3625235576579595,-0.1789396691203523,-0.0583092409522926,0.6697035393433953,0.2953258552641679,-0.5291660951946093,-0.5651468186412555,0.6934397730964775,718.4249084249085,810.6959706959707,798.6080586080586,834.8717948717949,985.5677655677656,-0.023376,0.145569,1.018677,5.106659,-3.723450,-2.056122,1,1,1,1,2,30.000000
2024-02-29 12:28:07.742,0.2649529037287527,0.1334850412215597,0.0126464901436775,0.413793850486227,0.5693765864812773,0.001306486730800013,-0.117002487813654,0.7525849141599011,0.4704004299214754,0.1806593196372129,0.1198083091877215,0.2258303665641255,0.3625235576579595,-0.1789396691203523,-0.0583092409522926,0.6697035393433953,0.2953258552641679,-0.5291660951946093,-0.5651468186412555,0.6934397730964775,640.6593406593407,805.4578754578755,795.3846153846154,417.0329670329671,640.2564102564103,-0.025208,0.149414,1.021606,5.054321,-3.342133,-2.781372,1,1,1,1,2,30.000000
2024-02-29 12:28:07.742,0.2649529037287527,0.1334850412215597,0.0126464901436775,0.413793850486227,0.5693765864812773,0.001306486730800013,-0.117002487813654,0.7525849141599011,0.4704004299214754,0.1806593196372129,0.1198083091877215,0.2258303665641255,0.3625235576579595,-0.1789396691203523,-0.0583092409522926,0.6697035393433953,0.2953258552641679,-0.5291660951946093,-0.5651468186412555,0.6934397730964775,641.0622710622711,802.6373626373627,795.7875457875458,377.1428571428572,515.3479853479854,-0.025208,0.149414,1.021606,5.054321,-3.342133,-2.781372,1,1,1,1,2,30.000000
2024-02-29 12:28:07.743,0.2649529037287527,0.1334850412215597,0.0126464901436775,0.413793850486227,0.5693765864812773,0.001306486730800013,-0.117002487813654,0.7525849141599011,0.4704004299214754,0.1806593196372129,0.1198083091877215,0.2258303665641255,0.3625235576579595,-0.1789396691203523,-0.0583092409522926,0.6697035393433953,0.2953258552641679,-0.5291660951946093,-0.5651468186412555,0.6934397730964775,703.1135531135532,805.8608058608058,791.3553113553114,726.0805860805862,726.8864468864469,-0.025208,0.149414,1.021606,5.054321,-3.342133,-2.781372,1,1,1,1,2,30.000000
2024-02-29 12:28:07.743,0.2649529037287527,0.1334850412215597,0.0126464901436775,0.413793850486227,0.5693765864812773,0.001306486730800013,-0.117002487813654,0.7525849141599011,0.4704004299214754,0.1806593196372129,0.1198083091877215,0.2258303665641255,0.3625235576579595,-0.1789396691203523,-0.0583092409522926,0.6697035393433953,0.2953258552641679,-0.5291660951946093,-0.5651468186412555,0.6934397730964775,762.3443223443223,810.2930402930403,795.7875457875458,1058.498168498169,1014.175824175824,-0.025208,0.149414,1.021606,5.054321,-3.342133,-2.781372,1,1,1,1,2,30.000000
2024-02-29 12:28:07.744,0.2649529037287527,0.1334850412215597,0.0126464901436775,0.413793850486227,0.5693765864812773,0.001306486730800013,-0.117002487813654,0.7525849141599011,0.4704004299214754,0.1806593196372129,0.1198083091877215,0.2258303665641255,0.3625235576579595,-0.1789396691203523,-0.0583092409522926,0.6697035393433953,0.2953258552641679,-0.5291660951946093,-0.5651468186412555,0.6934397730964775,738.1684981684982,807.8754578754579,801.8315018315019,901.7582417582418,959.3772893772895,-0.025208,0.149414,1.021606,5.054321,-3.342133,-2.781372,1,1,1,1,2,30.000000
2024-02-29 12:28:07.744,0.2649529037287527,0.1334850412215597,0.0126464901436775,0.413793850486227,0.5693765864812773,0.001306486730800013,-0.117002487813654,0.7525849141599011,0.4704004299214754,0.1806593196372129,0.1198083091877215,0.2258303665641255,0.3625235576579595,-0.1789396691203523,-0.0583092409522926,0.6697035393433953,0.2953258552641679,-0.5291660951946093,-0.5651468186412555,0.6934397730964775,670.0732600732601,810.2930402930403,801.025641025641,493.5897435897436,708.3516483516484,-0.025208,0.149414,1.021606,5.054321,-3.342133,-2.781372,1,1,1,1,2,30.000000
2024-02-29 12:28:07.745,0.2649529037287527,0.1334850412215597,0.0126464901436775,0.413793850486227,0.5693765864812773,0.001306486730800013,-0.117002487813654,0.7525849141599011,0.4704004299214754,0.1806593196372129,0.1198083091877215,0.2258303665641255,0.3625235576579595,-0.1789396691203523,-0.0583092409522926,0.6697035393433953,0.2953258552641679,-0.5291660951946093,-0.5651468186412555,0.6934397730964775,660.8058608058608,806.2637362637363,800.2197802197802,382.3809523809524,816.3369963369963,-0.025208,0.149414,1.021606,5.054321,-3.342133,-2.781372,1,1,1,1,2,30.000000
2024-02-29 12:28:07.745,0.2649529037287527,0.1334850412215597,0.0126464901436775,0.413793850486227,0.5693765864812773,0.001306486730800013,-0.117002487813654,0.7525849141599011,0.4704004299214754,0.1806593196372129,0.1198083091877215,0.2258303665641255,0.3625235576579595,-0.1789396691203523,-0.0583092409522926,0.6697035393433953,0.2953258552641679,-0.5291660951946093,-0.5651468186412555,0.6934397730964775,736.5567765567765,800.6227106227107,800.2197802197802,723.2600732600732,968.2417582417582,-0.025208,0.149414,1.021606,5.054321,-3.342133,-2.781372,1,1,1,1,2,30.000000
2024-02-29 12:28:07.745,0.2649529037287527,0.1334850412215597,0.0126464901436775,0.413793850486227,0.5693765864812773,0.001306486730800013,-0.117002487813654,0.7525849141599011,0.4704004299214754,0.1806593196372129,0.1198083091877215,0.2258303665641255,0.3625235576579595,-0.1789396691203523,-0.0583092409522926,0.6697035393433953,0.2953258552641679,-0.5291660951946093,-0.5651468186412555,0.6934397730964775,802.2344322344322,808.2783882783883,801.025641025641,1084.285714285714,994.8351648351648,-0.025208,0.149414,1.021606,5.054321,-3.342133,-2.781372,1,1,1,1,2,30.000000
2024-02-29 12:28:07.746,0.2649529037287527,0.1334850412215597,0.0126464901436775,0.413793850486227,0.5693765864812773,0.001306486730800013,-0.117002487813654,0.7525849141599011,0.4704004299214754,0.1806593196372129,0.1198083091877215,0.2258303665641255,0.3625235576579595,-0.1789396691203523,-0.0583092409522926,0.6697035393433953,0.2953258552641679,-0.5291660951946093,-0.5651468186412555,0.6934397730964775,782.0879120879121,806.6666666666667,800.6227106227107,978.3150183150184,1032.307692307692,-0.025208,0.149414,1.021606,5.054321,-3.342133,-2.781372,1,1,1,1,2,30.000000
2024-02-29 12:28:07.746,0.2649529037287527,0.1334850412215597,0.0126464901436775,0.413793850486227,0.5693765864812773,0.001306486730800013,-0.117002487813654,0.7525849141599011,0.4704004299214754,0.1806593196372129,0.1198083091877215,0.2258303665641255,0.3625235576579595,-0.1789396691203523,-0.0583092409522926,0.6697035393433953,0.2953258552641679,-0.5291660951946093,-0.5651468186412555,0.6934397730964775,724.8717948717949,804.6520146520147,796.996336996337,597.1428571428571,861.4652014652015,-0.025208,0.149414,1.021606,5.054321,-3.342133,-2.781372,1,1,1,1,2,30.000000
2024-02-29 12:28:07.746,0.2649529037287527,0.1334850412215597,0.0126464901436775,0.413793850486227,0.5693765864812773,0.001306486730800013,-0.117002487813654,0.7525849141599011,0.4704004299214754,0.1806593196372129,0.1198083091877215,0.2258303665641255,0.3625235576579595,-0.1789396691203523,-0.0583092409522926,0.6697035393433953,0.2953258552641679,-0.5291660951946093,-0.5651468186412555,0.6934397730964775,707.5457875457876,804.2490842490843,795.7875457875458,413.8095238095238,656.7765567765568,-0.025208,0.149414,1.021606,5.054321,-3.342133,-2.781372,1,1,1,1,2,30.000000
2024-02-29 12:28:07.747,0.2649529037287527,0.1334850412215597,0.0126464901436775,0.413793850486227,0.5693765864812773,0.001306486730800013,-0.117002487813654,0.7525849141599011,0.4704004299214754,0.1806593196372129,0.1198083091877215,0.2258303665641255,0.3625235576579595,-0.1789396691203523,-0.0583092409522926,0.6697035393433953,0.2953258552641679,-0.5291660951946093,-0.5651468186412555,0.6934397730964775,773.2234432234433,809.8901098901099,802.2344322344322,720.4395604395604,691.8315018315019,-0.019653,0.154785,1.021729,5.637512,-4.396362,-1.091614,1,1,1,1,2,30.000000
2024-02-29 12:28:07.747,0.2872146545853145,0.1209360859115584,-0.07356964349361077,0.413793850486227,0.5691471048749313,-0.007971133810737482,-0.154481302477036,0.7525849141599011,0.4704004299214754,0.194388883144216,0.1198083091877215,0.2258303665641255,0.352606371270758,-0.1872538834281389,-0.07635039477637137,0.6697035393433953,0.3084432147343558,-0.5243585623979707,-0.5699089436830677,0.6934397730964775,847.3626373626374,810.2930402930403,805.8608058608058,1124.981684981685,933.1868131868132,-0.019653,0.154785,1.021729,5.637512,-4.396362,-1.091614,1,1,1,1,2,30.000000
2024-02-29 12:28:07.748,0.2872146545853145,0.1209360859115584,-0.07356964349361077,0.413793850486227,0.5691471048749313,-0.007971133810737482,-0.154481302477036,0.7525849141599011,0.4704004299214754,0.194388883144216,0.1198083091877215,0.2258303665641255,0.352606371270758,-0.1872538834281389,-0.07635039477637137,0.6697035393433953,0.3084432147343558,-0.5243585623979707,-0.5699089436830677,0.6934397730964775,841.7216117216118,805.8608058608058,803.040293040293,1082.673992673993,1110.879120879121,-0.019653,0.154785,1.021729,5.637512,-4.396362,-1.091614,1,1,1,1,2,30.000000
2024-02-29 12:28:07.749,0.2872146545853145,0.1209360859115584,-0.07356964349361077,0.413793850486227,0.5691471048749313,-0.007971133810737482,-0.154481302477036,0.7525849141599011,0.4704004299214754,0.194388883144216,0.1198083091877215,0.2258303665641255,0.352606371270758,-0.1872538834281389,-0.07635039477637137,0.6697035393433953,0.3084432147343558,-0.5243585623979707,-0.5699089436830677,0.6934397730964775,780.4761904761905,806.2637362637363,799.8168498168499,689.0109890109891,835.6776556776557,-0.019653,0.154785,1.021729,5.637512,-4.396362,-1.091614,1,1,1,1,2,30.000000
2024-02-29 12:28:07.749,0.2872146545853145,0.1209360859115584,-0.07356964349361077,0.413793850486227,0.5691471048749313,-0.007971133810737482,-0.154481302477036,0.7525849141599011,0.4704004299214754,0.194388883144216,0.1198083091877215,0.2258303665641255,0.352606371270758,-0.1872538834281389,-0.07635039477637137,0.6697035393433953,0.3084432147343558,-0.5243585623979707,-0.5699089436830677,0.6934397730964775,758.7179487179487,802.2344322344322,798.2051282051282,469.4139194139194,522.1978021978022,-0.019653,0.154785,1.021729,5.637512,-4.396362,-1.091614,1,1,1,1,2,30.000000
2024-02-29 12:28:07.750,0.2872146545853145,0.1209360859115584,-0.07356964349361077,0.413793850486227,0.5691471048749313,-0.007971133810737482,-0.154481302477036,0.7525849141599011,0.4704004299214754,0.194388883144216,0.1198083091877215,0.2258303665641255,0.352606371270758,-0.1872538834281389,-0.07635039477637137,0.6697035393433953,0.3084432147343558,-0.5243585623979707,-0.5699089436830677,0.6934397730964775,820.3663003663004,803.4432234432235,798.6080586080586,737.7655677655678,773.6263736263736,-0.019653,0.154785,1.021729,5.637512,-4.396362,-1.091614,1,1,1,1,2,30.000000
2024-02-29 12:28:07.750,0.2872146545853145,0.1209360859115584,-0.07356964349361077,0.413793850486227,0.5691471048749313,-0.007971133810737482,-0.154481302477036,0.7525849141599011,0.4704004299214754,0.194388883144216,0.1198083091877215,0.2258303665641255,0.352606371270758,-0.1872538834281389,-0.07635039477637137,0.6697035393433953,0.3084432147343558,-0.5243585623979707,-0.5699089436830677,0.6934397730964775,886.4468864468864,808.6813186813187,801.025641025641,1135.457875457875,1160.43956043956,-0.019653,0.154785,1.021729,5.637512,-4.396362,-1.091614,1,1,1,1,2,30.000000
2024-02-29 12:28:07.751,0.2872146545853145,0.1209360859115584,-0.07356964349361077,0.413793850486227,0.5691471048749313,-0.007971133810737482,-0.154481302477036,0.7525849141599011,0.4704004299214754,0.194388883144216,0.1198083091877215,0.2258303665641255,0.352606371270758,-0.1872538834281389,-0.07635039477637137,0.6697035393433953,0.3084432147343558,-0.5243585623979707,-0.5699089436830677,0.6934397730964775,894.1025641025641,817.1428571428571,806.2637362637363,1159.230769230769,1095.970695970696,-0.019653,0.154785,1.021729,5.637512,-4.396362,-1.091614,1,1,1,1,2,30.000000
2024-02-29 12:28:07.751,0.2872146545853145,0.1209360859115584,-0.07356964349361077,0.413793850486227,0.5691471048749313,-0.007971133810737482,-0.154481302477036,0.7525849141599011,0.4704004299214754,0.194388883144216,0.1198083091877215,0.2258303665641255,0.352606371270758,-0.1872538834281389,-0.07635039477637137,0.6697035393433953,0.3084432147343558,-0.5243585623979707,-0.5699089436830677,0.6934397730964775,827.6190476190476,808.6813186813187,802.2344322344322,772.4175824175825,771.6117216117216,-0.019653,0.154785,1.021729,5.637512,-4.396362,-1.091614,1,1,1,1,2,30.000000
2024-02-29 12:28:07.751,0.2872146545853145,0.1209360859115584,-0.07356964349361077,0.413793850486227,0.5691471048749313,-0.007971133810737482,-0.154481302477036,0.7525849141599011,0.4704004299214754,0.194388883144216,0.1198083091877215,0.2258303665641255,0.352606371270758,-0.1872538834281389,-0.07635039477637137,0.6697035393433953,0.3084432147343558,-0.5243585623979707,-0.5699089436830677,0.6934397730964775,776.0439560439561,800.2197802197802,801.8315018315019,485.9340659340659,675.7142857142858,-0.019653,0.154785,1.021729,5.637512,-4.396362,-1.091614,1,1,1,1,2,30.000000
2024-02-29 12:28:07.752,0.2872146545853145,0.1209360859115584,-0.07356964349361077,0.413793850486227,0.5691471048749313,-0.007971133810737482,-0.154481302477036,0.7525849141599011,0.4704004299214754,0.194388883144216,0.1198083091877215,0.2258303665641255,0.352606371270758,-0.1872538834281389,-0.07635039477637137,0.6697035393433953,0.3084432147343558,-0.5243585623979707,-0.5699089436830677,0.6934397730964775,818.7545787545788,805.0549450549451,807.0695970695971,681.3553113553114,750.6593406593407,-0.019653,0.154785,1.021729,5.637512,-4.396362,-1.091614,1,1,1,1,2,30.000000
2024-02-29 12:28:07.752,0.2872146545853145,0.1209360859115584,-0.07356964349361077,0.413793850486227,0.5691471048749313,-0.007971133810737482,-0.154481302477036,0.7525849141599011,0.4704004299214754,0.194388883144216,0.1198083091877215,0.2258303665641255,0.352606371270758,-0.1872538834281389,-0.07635039477637137,0.6697035393433953,0.3084432147343558,-0.5243585623979707,-0.5699089436830677,0.6934397730964775,889.2673992673992,809.0842490842491,804.2490842490843,1083.882783882784,835.6776556776557,-0.019653,0.154785,1.021729,5.637512,-4.396362,-1.091614,1,1,1,1,2,30.000000
2024-02-29 12:28:07.754,0.2872146545853145,0.1209360859115584,-0.07356964349361077,0.413793850486227,0.5691471048749313,-0.007971133810737482,-0.154481302477036,0.7525849141599011,0.4704004299214754,0.194388883144216,0.1198083091877215,0.2258303665641255,0.352606371270758,-0.1872538834281389,-0.07635039477637137,0.6697035393433953,0.3084432147343558,-0.5243585623979707,-0.5699089436830677,0.6934397730964775,909.0109890109891,811.9047619047619,805.0549450549451,1184.615384615385,985.5677655677656,-0.017517,0.155762,1.015991,5.502930,-5.099182,-1.114044,1,1,1,1,2,30.000000
2024-02-29 12:28:07.754,0.2872146545853145,0.1209360859115584,-0.07356964349361077,0.413793850486227,0.5691471048749313,-0.007971133810737482,-0.154481302477036,0.7525849141599011,0.4704004299214754,0.194388883144216,0.1198083091877215,0.2258303665641255,0.352606371270758,-0.1872538834281389,-0.07635039477637137,0.6697035393433953,0.3084432147343558,-0.5243585623979707,-0.5699089436830677,0.6934397730964775,847.3626373626374,811.0989010989011,804.2490842490843,825.6043956043957,909.8168498168499,-0.017517,0.155762,1.015991,5.502930,-5.099182,-1.114044,1,1,1,1,2,30.000000
2024-02-29 12:28:07.754,0.2872146545853145,0.1209360859115584,-0.07356964349361077,0.413793850486227,0.5691471048749313,-0.007971133810737482,-0.154481302477036,0.7525849141599011,0.4704004299214754,0.194388883144216,0.1198083091877215,0.2258303665641255,0.352606371270758,-0.1872538834281389,-0.07635039477637137,0.6697035393433953,0.3084432147343558,-0.5243585623979707,-0.5699089436830677,0.6934397730964775,788.9377289377289,808.6813186813187,799.8168498168499,490.3663003663004,697.8754578754579,-0.017517,0.155762,1.015991,5.502930,-5.099182,-1.114044,1,1,1,1,2,30.000000
2024-02-29 12:28:07.755,0.2872146545853145,0.1209360859115584,-0.07356964349361077,0.413793850486227,0.5691471048749313,-0.007971133810737482,-0.154481302477036,0.7525849141599011,0.4704004299214754,0.194388883144216,0.1198083091877215,0.2258303665641255,0.352606371270758,-0.1872538834281389,-0.07635039477637137,0.6697035393433953,0.3084432147343558,-0.5243585623979707,-0.5699089436830677,0.6934397730964775,815.1282051282052,812.3076923076924,801.4285714285714,635.0183150183151,581.4285714285714,-0.017517,0.155762,1.015991,5.502930,-5.099182,-1.114044,1,1,1,1,2,30.000000
2024-02-29 12:28:07.755,0.2872146545853145,0.1209360859115584,-0.07356964349361077,0.413793850486227,0.5691471048749313,-0.007971133810737482,-0.154481302477036,0.7525849141599011,0.4704004299214754,0.194388883144216,0.1198083091877215,0.2258303665641255,0.352606371270758,-0.1872538834281389,-0.07635039477637137,0.6697035393433953,0.3084432147343558,-0.5243585623979707,-0.5699089436830677,0.6934397730964775,883.6263736263736,813.1135531135532,804.2490842490843,1038.754578754579,740.989010989011,-0.017517,0.155762,1.015991,5.502930,-5.099182,-1.114044,1,1,1,1,2,30.000000
2024-02-29 12:28:07.756,0.2872146545853145,0.1209360859115584,-0.07356964349361077,0.413793850486227,0.5691471048749313,-0.007971133810737482,-0.154481302477036,0.7525849141599011,0.4704004299214754,0.194388883144216,0.1198083091877215,0.2258303665641255,0.352606371270758,-0.1872538834281389,-0.07635039477637137,0.6697035393433953,0.3084432147343558,-0.5243585623979707,-0.5699089436830677,0.6934397730964775,904.1758241758242,807.4725274725275,799.0109890109891,1203.956043956044,1016.190476190476,-0.017517,0.155762,1.015991,5.502930,-5.099182,-1.114044,1,1,1,1,2,30.000000
2024-02-29 12:28:07.756,0.2872146545853145,0.1209360859115584,-0.07356964349361077,0.413793850486227,0.5691471048749313,-0.007971133810737482,-0.154481302477036,0.7525849141599011,0.4704004299214754,0.194388883144216,0.1198083091877215,0.2258303665641255,0.352606371270758,-0.1872538834281389,-0.07635039477637137,0.6697035393433953,0.3084432147343558,-0.5243585623979707,-0.5699089436830677,0.6934397730964775,844.1391941391942,810.6959706959707,799.4139194139194,865.8974358974359,962.6007326007326,-0.017517,0.155762,1.015991,5.502930,-5.099182,-1.114044,1,1,1,1,2,30.000000
2024-02-29 12:28:07.756,0.2872146545853145,0.1209360859115584,-0.07356964349361077,0.413793850486227,0.5691471048749313,-0.007971133810737482,-0.154481302477036,0.7525849141599011,0.4704004299214754,0.194388883144216,0.1198083091877215,0.2258303665641255,0.352606371270758,-0.1872538834281389,-0.07635039477637137,0.6697035393433953,0.3084432147343558,-0.5243585623979707,-0.5699089436830677,0.6934397730964775,786.1172161172161,814.3223443223443,802.6373626373627,502.8571428571429,646.3003663003664,-0.017517,0.155762,1.015991,5.502930,-5.099182,-1.114044,1,1,1,1,2,30.000000
2024-02-29 12:28:07.757,0.2872146545853145,0.1209360859115584,-0.07356964349361077,0.413793850486227,0.5691471048749313,-0.007971133810737482,-0.154481302477036,0.7525849141599011,0.4704004299214754,0.194388883144216,0.1198083091877215,0.2258303665641255,0.352606371270758,-0.1872538834281389,-0.07635039477637137,0.6697035393433953,0.3084432147343558,-0.5243585623979707,-0.5699089436830677,0.6934397730964775,806.2637362637363,812.3076923076924,799.8168498168499,596.7399267399268,547.1794871794872,-0.017517,0.155762,1.015991,5.502930,-5.099182,-1.114044,1,1,1,1,2,30.000000
2024-02-29 12:28:07.757,0.2872146545853145,0.1209360859115584,-0.07356964349361077,0.413793850486227,0.5691471048749313,-0.007971133810737482,-0.154481302477036,0.7525849141599011,0.4704004299214754,0.194388883144216,0.1198083091877215,0.2258303665641255,0.352606371270758,-0.1872538834281389,-0.07635039477637137,0.6697035393433953,0.3084432147343558,-0.5243585623979707,-0.5699089436830677,0.6934397730964775,881.2087912087912,808.2783882783883,805.0549450549451,1000.47619047619,981.5384615384615,-0.017517,0.155762,1.015991,5.502930,-5.099182,-1.114044,1,1,1,1,2,30.000000
2024-02-29 12:28:07.758,0.2872146545853145,0.1209360859115584,-0.07356964349361077,0.413793850486227,0.5691471048749313,-0.007971133810737482,-0.154481302477036,0.7525849141599011,0.4704004299214754,0.194388883144216,0.1198083091877215,0.2258303665641255,0.352606371270758,-0.1872538834281389,-0.07635039477637137,0.6697035393433953,0.3084432147343558,-0.5243585623979707,-0.5699089436830677,0.6934397730964775,914.2490842490843,808.6813186813187,805.0549450549451,1229.74358974359,1260.769230769231,-0.017517,0.155762,1.015991,5.502930,-5.099182,-1.114044,1,1,1,1,2,30.000000
2024-02-29 12:28:07.758,0.2872146545853145,0.1209360859115584,-0.07356964349361077,0.413793850486227,0.5691471048749313,-0.007971133810737482,-0.154481302477036,0.7525849141599011,0.4704004299214754,0.194388883144216,0.1198083091877215,0.2258303665641255,0.352606371270758,-0.1872538834281389,-0.07635039477637137,0.6697035393433953,0.3084432147343558,-0.5243585623979707,-0.5699089436830677,0.6934397730964775,858.6446886446887,811.9047619047619,804.6520146520147,923.919413919414,925.5311355311355,-0.017517,0.155762,1.015991,5.502930,-5.099182,-1.114044,1,1,1,1,2,30.000000
2024-02-29 12:28:07.759,0.2872146545853145,0.1209360859115584,-0.07356964349361077,0.413793850486227,0.5691471048749313,-0.007971133810737482,-0.154481302477036,0.7525849141599011,0.4704004299214754,0.194388883144216,0.1198083091877215,0.2258303665641255,0.352606371270758,-0.1872538834281389,-0.07635039477637137,0.6697035393433953,0.3084432147343558,-0.5243585623979707,-0.5699089436830677,0.6934397730964775,790.5494505494506,807.0695970695971,813.919413919414,529.4505494505495,694.6520146520147,-0.019043,0.161194,1.024048,4.942169,-4.149628,-1.428070,1,1,1,1,2,30.000000
2024-02-29 12:28:07.759,0.2872146545853145,0.1209360859115584,-0.07356964349361077,0.413793850486227,0.5691471048749313,-0.007971133810737482,-0.154481302477036,0.7525849141599011,0.4704004299214754,0.194388883144216,0.1198083091877215,0.2258303665641255,0.352606371270758,-0.1872538834281389,-0.07635039477637137,0.6697035393433953,0.3084432147343558,-0.5243585623979707,-0.5699089436830677,0.6934397730964775,801.4285714285714,809.8901098901099,814.7252747252747,560.8791208791209,655.9706959706959,-0.019043,0.161194,1.024048,4.942169,-4.149628,-1.428070,1,1,1,1,2,30.000000
2024-02-29 12:28:07.759,0.2872146545853145,0.1209360859115584,-0.07356964349361077,0.413793850486227,0.5691471048749313,-0.007971133810737482,-0.154481302477036,0.7525849141599011,0.4704004299214754,0.194388883144216,0.1198083091877215,0.2258303665641255,0.352606371270758,-0.1872538834281389,-0.07635039477637137,0.6697035393433953,0.3084432147343558,-0.5243585623979707,-0.5699089436830677,0.6934397730964775,874.7619047619048,816.7399267399268,812.3076923076924,935.2014652014652,779.2673992673992,-0.019043,0.161194,1.024048,4.942169,-4.149628,-1.428070,1,1,1,1,2,30.000000
2024-02-29 12:28:07.760,0.312700026778278,0.09647534587652207,-0.1841103570715864,0.413793850486227,0.5529126027423287,-0.01518678985771152,-0.1951537893173306,0.7525849141599011,0.4674499845132712,0.2140456463166426,0.1198083091877215,0.2258303665641255,0.3533815332347683,-0.2050024721450232,-0.09970659864540846,0.6697035393433953,0.3257281746013624,-0.5206166251688775,-0.5767066124123527,0.6934397730964775,915.8608058608058,822.3809523809524,813.919413919414,1205.164835164835,998.4615384615385,-0.019043,0.161194,1.024048,4.942169,-4.149628,-1.428070,1,1,1,1,2,30.000000
2024-02-29 12:28:07.761,0.312700026778278,0.09647534587652207,-0.1841103570715864,0.413793850486227,0.5529126027423287,-0.01518678985771152,-0.1951537893173306,0.7525849141599011,0.4674499845132712,0.2140456463166426,0.1198083091877215,0.2258303665641255,0.3533815332347683,-0.2050024721450232,-0.09970659864540846,0.6697035393433953,0.3257281746013624,-0.5206166251688775,-0.5767066124123527,0.6934397730964775,863.4798534798535,818.7545787545788,810.6959706959707,965.0183150183151,1031.098901098901,-0.019043,0.161194,1.024048,4.942169,-4.149628,-1.428070,1,1,1,1,2,30.000000
2024-02-29 12:28:07.761,0.312700026778278,0.09647534587652207,-0.1841103570715864,0.413793850486227,0.5529126027423287,-0.01518678985771152,-0.1951537893173306,0.7525849141599011,0.4674499845132712,0.2140456463166426,0.1198083091877215,0.2258303665641255,0.3533815332347683,-0.2050024721450232,-0.09970659864540846,0.6697035393433953,0.3257281746013624,-0.5206166251688775,-0.5767066124123527,0.6934397730964775,786.1172161172161,813.919413919414,808.2783882783883,567.3260073260074,925.934065934066,-0.019043,0.161194,1.024048,4.942169,-4.149628,-1.428070,1,1,1,1,2,30.000000
2024-02-29 12:28:07.762,0.312700026778278,0.09647534587652207,-0.1841103570715864,0.413793850486227,0.5529126027423287,-0.01518678985771152,-0.1951537893173306,0.7525849141599011,0.4674499845132712,0.2140456463166426,0.1198083091877215,0.2258303665641255,0.3533815332347683,-0.2050024721450232,-0.09970659864540846,0.6697035393433953,0.3257281746013624,-0.5206166251688775,-0.5767066124123527,0.6934397730964775,782.0879120879121,810.6959706959707,805.4578754578755,514.5421245421246,742.6007326007326,-0.019043,0.161194,1.024048,4.942169,-4.149628,-1.428070,1,1,1,1,2,30.000000
2024-02-29 12:28:07.762,0.312700026778278,0.09647534587652207,-0.1841103570715864,0.413793850486227,0.5529126027423287,-0.01518678985771152,-0.1951537893173306,0.7525849141599011,0.4674499845132712,0.2140456463166426,0.1198083091877215,0.2258303665641255,0.3533815332347683,-0.2050024721450232,-0.09970659864540846,0.6697035393433953,0.3257281746013624,-0.5206166251688775,-0.5767066124123527,0.6934397730964775,850.5860805860806,808.2783882783883,806.6666666666667,868.3150183150184,724.8717948717949,-0.019043,0.161194,1.024048,4.942169,-4.149628,-1.428070,1,1,1,1,2,30.000000
2024-02-29 12:28:07.763,0.312700026778278,0.09647534587652207,-0.1841103570715864,0.413793850486227,0.5529126027423287,-0.01518678985771152,-0.1951537893173306,0.7525849141599011,0.4674499845132712,0.2140456463166426,0.1198083091877215,0.2258303665641255,0.3533815332347683,-0.2050024721450232,-0.09970659864540846,0.6697035393433953,0.3257281746013624,-0.5206166251688775,-0.5767066124123527,0.6934397730964775,899.7435897435897,808.2783882783883,811.0989010989011,1209.59706959707,1012.967032967033,-0.019043,0.161194,1.024048,4.942169,-4.149628,-1.428070,1,1,1,1,2,30.000000
2024-02-29 12:28:07.763,0.312700026778278,0.09647534587652207,-0.1841103570715864,0.413793850486227,0.5529126027423287,-0.01518678985771152,-0.1951537893173306,0.7525849141599011,0.4674499845132712,0.2140456463166426,0.1198083091877215,0.2258303665641255,0.3533815332347683,-0.2050024721450232,-0.09970659864540846,0.6697035393433953,0.3257281746013624,-0.5206166251688775,-0.5767066124123527,0.6934397730964775,865.0915750915751,808.2783882783883,810.2930402930403,1029.89010989011,1115.311355311355,-0.019043,0.161194,1.024048,4.942169,-4.149628,-1.428070,1,1,1,1,2,30.000000
2024-02-29 12:28:07.763,0.312700026778278,0.09647534587652207,-0.1841103570715864,0.413793850486227,0.5529126027423287,-0.01518678985771152,-0.1951537893173306,0.7525849141599011,0.4674499845132712,0.2140456463166426,0.1198083091877215,0.2258303665641255,0.3533815332347683,-0.2050024721450232,-0.09970659864540846,0.6697035393433953,0.3257281746013624,-0.5206166251688775,-0.5767066124123527,0.6934397730964775,790.5494505494506,809.0842490842491,810.2930402930403,597.948717948718,756.3003663003664,-0.019043,0.161194,1.024048,4.942169,-4.149628,-1.428070,1,1,1,1,2,30.000000
2024-02-29 12:28:07.764,0.312700026778278,0.09647534587652207,-0.1841103570715864,0.413793850486227,0.5529126027423287,-0.01518678985771152,-0.1951537893173306,0.7525849141599011,0.4674499845132712,0.2140456463166426,0.1198083091877215,0.2258303665641255,0.3533815332347683,-0.2050024721450232,-0.09970659864540846,0.6697035393433953,0.3257281746013624,-0.5206166251688775,-0.5767066124123527,0.6934397730964775,772.014652014652,806.2637362637363,810.6959706959707,481.9047619047619,596.3369963369963,-0.019043,0.161194,1.024048,4.942169,-4.149628,-1.428070,1,1,1,1,2,30.000000
2024-02-29 12:28:07.765,0.312700026778278,0.09647534587652207,-0.1841103570715864,0.413793850486227,0.5529126027423287,-0.01518678985771152,-0.1951537893173306,0.7525849141599011,0.4674499845132712,0.2140456463166426,0.1198083091877215,0.2258303665641255,0.3533815332347683,-0.2050024721450232,-0.09970659864540846,0.6697035393433953,0.3257281746013624,-0.5206166251688775,-0.5767066124123527,0.6934397730964775,833.2600732600733,804.2490842490843,808.6813186813187,830.8424908424909,787.7289377289378,-0.019043,0.161194,1.024048,4.942169,-4.149628,-1.428070,1,1,1,1,2,30.000000
2024-02-29 12:28:07.766,0.312700026778278,0.09647534587652207,-0.1841103570715864,0.413793850486227,0.5529126027423287,-0.01518678985771152,-0.1951537893173306,0.7525849141599011,0.4674499845132712,0.2140456463166426,0.1198083091877215,0.2258303665641255,0.3533815332347683,-0.2050024721450232,-0.09970659864540846,0.6697035393433953,0.3257281746013624,-0.5206166251688775,-0.5767066124123527,0.6934397730964775,884.8351648351648,809.4871794871796,810.6959706959707,1173.333333333333,1020.622710622711,-0.019043,0.161194,1.024048,4.942169,-4.149628,-1.428070,1,1,1,1,2,30.000000
2024-02-29 12:28:07.766,0.312700026778278,0.09647534587652207,-0.1841103570715864,0.413793850486227,0.5529126027423287,-0.01518678985771152,-0.1951537893173306,0.7525849141599011,0.4674499845132712,0.2140456463166426,0.1198083091877215,0.2258303665641255,0.3533815332347683,-0.2050024721450232,-0.09970659864540846,0.6697035393433953,0.3257281746013624,-0.5206166251688775,-0.5767066124123527,0.6934397730964775,857.032967032967,811.0989010989011,813.1135531135532,1048.827838827839,1058.095238095238,-0.019043,0.161194,1.024048,4.942169,-4.149628,-1.428070,1,1,1,1,2,30.000000
